#  wavelength    Flux         Std.Dev.
#  [Angstroem]   [F(5500)]    [N/A]

  6250.025   35987.1701    0.1
  6250.042   35952.0456    0.1
  6250.060   35945.0135    0.1
  6250.077   35947.3661    0.1
  6250.095   35705.3287    0.1
  6250.112   35617.0854    0.1
  6250.129   35641.8966    0.1
  6250.147   35515.9585    0.1
  6250.164   35386.6389    0.1
  6250.182   35388.1220    0.1
  6250.199   35185.4615    0.1
  6250.216   34550.2462    0.1
  6250.234   34172.9557    0.1
  6250.251   33678.4754    0.1
  6250.269   33231.2325    0.1
  6250.286   32854.8855    0.1
  6250.303   32408.2397    0.1
  6250.321   32264.1150    0.1
  6250.338   32375.3456    0.1
  6250.356   32672.6884    0.1
  6250.373   33053.3453    0.1
  6250.390   33692.8973    0.1
  6250.408   34376.8419    0.1
  6250.425   35169.5999    0.1
  6250.443   35519.7385    0.1
  6250.460   35426.3337    0.1
  6250.477   35091.2312    0.1
  6250.495   34005.4739    0.1
  6250.512   32711.1974    0.1
  6250.530   30999.1302    0.1
  6250.547   29291.2058    0.1
  6250.564   27637.0368    0.1
  6250.582   25711.0253    0.1
  6250.599   24299.3995    0.1
  6250.617   23377.5345    0.1
  6250.634   22788.8147    0.1
  6250.652   22242.6518    0.1
  6250.669   21963.3146    0.1
  6250.686   21891.7930    0.1
  6250.704   21933.9710    0.1
  6250.721   22159.8411    0.1
  6250.739   22498.1093    0.1
  6250.756   23096.9391    0.1
  6250.773   23714.4141    0.1
  6250.791   24895.4727    0.1
  6250.808   26347.3786    0.1
  6250.826   27573.1505    0.1
  6250.843   28900.1013    0.1
  6250.860   30827.5357    0.1
  6250.878   32403.1220    0.1
  6250.895   33443.0679    0.1
  6250.913   34392.7633    0.1
  6250.930   35281.1082    0.1
  6250.947   35270.1933    0.1
  6250.965   34642.9120    0.1
  6250.982   34225.5895    0.1
  6251.000   33214.6966    0.1
  6251.017   32394.0570    0.1
  6251.034   32021.0800    0.1
  6251.052   31851.6495    0.1
  6251.069   32083.2082    0.1
  6251.087   32644.1840    0.1
  6251.104   33316.2043    0.1
  6251.121   33838.6498    0.1
  6251.139   34383.6637    0.1
  6251.156   34656.0278    0.1
  6251.174   34691.0330    0.1
  6251.191   34689.1639    0.1
  6251.208   34835.2021    0.1
  6251.226   34872.9449    0.1
  6251.243   35007.5318    0.1
  6251.261   35328.8685    0.1
  6251.278   35917.1151    0.1
  6251.295   36297.8145    0.1
  6251.313   36530.7777    0.1
  6251.330   36595.0675    0.1
  6251.348   36646.1528    0.1
  6251.365   36326.8854    0.1
  6251.382   35677.4477    0.1
  6251.400   34970.3166    0.1
  6251.417   34123.9530    0.1
  6251.435   33258.0364    0.1
  6251.452   32544.5895    0.1
  6251.470   31681.2160    0.1
  6251.487   31334.1502    0.1
  6251.504   31445.5342    0.1
  6251.522   31671.0871    0.1
  6251.539   31884.3211    0.1
  6251.557   32176.6943    0.1
  6251.574   32558.0609    0.1
  6251.591   32424.4267    0.1
  6251.609   32219.5333    0.1
  6251.626   32103.7183    0.1
  6251.644   32023.0272    0.1
  6251.661   32091.4154    0.1
  6251.678   32212.5669    0.1
  6251.696   32512.1597    0.1
  6251.713   33149.6649    0.1
  6251.731   33990.8847    0.1
  6251.748   34573.6539    0.1
  6251.765   35048.7159    0.1
  6251.783   35708.0129    0.1
  6251.800   35860.5476    0.1
  6251.818   35910.1246    0.1
  6251.835   36339.7368    0.1
  6251.852   35886.0031    0.1
  6251.870   35340.8897    0.1
  6251.887   34738.2660    0.1
  6251.905   34602.0816    0.1
  6251.922   34860.8705    0.1
  6251.939   35320.7464    0.1
  6251.957   35966.6404    0.1
  6251.974   36699.8340    0.1
  6251.992   37154.8292    0.1
  6252.009   37737.5506    0.1
  6252.026   38085.5687    0.1
  6252.044   38308.9974    0.1
  6252.061   38450.6493    0.1
  6252.079   38610.3868    0.1
  6252.096   38680.0476    0.1
  6252.113   38693.2156    0.1
  6252.131   38845.0435    0.1
  6252.148   38958.7385    0.1
  6252.166   38961.8563    0.1
  6252.183   38952.4050    0.1
  6252.200   38958.8709    0.1
  6252.218   38787.5229    0.1
  6252.235   38647.7836    0.1
  6252.253   38162.8440    0.1
  6252.270   37289.7949    0.1
  6252.287   36114.0506    0.1
  6252.305   35239.0991    0.1
  6252.322   34682.5335    0.1
  6252.340   34834.7912    0.1
  6252.357   34749.5363    0.1
  6252.375   35076.2302    0.1
  6252.392   35379.5923    0.1
  6252.409   35684.6209    0.1
  6252.427   35863.3517    0.1
  6252.444   36281.4452    0.1
  6252.462   36168.9694    0.1
  6252.479   35972.4247    0.1
  6252.496   36052.7471    0.1
  6252.514   35993.3028    0.1
  6252.531   35905.7914    0.1
  6252.549   35436.6201    0.1
  6252.566   35234.5497    0.1
  6252.583   35185.7679    0.1
  6252.601   35141.4430    0.1
  6252.618   35261.9601    0.1
  6252.636   35289.9979    0.1
  6252.653   36057.2576    0.1
  6252.670   36789.2279    0.1
  6252.688   37026.3227    0.1
  6252.705   37358.8832    0.1
  6252.723   37107.7170    0.1
  6252.740   36485.0050    0.1
  6252.757   35370.1253    0.1
  6252.775   34020.1326    0.1
  6252.792   31620.2506    0.1
  6252.810   28709.6784    0.1
  6252.827   25557.4789    0.1
  6252.844   22347.6065    0.1
  6252.862   18616.7485    0.1
  6252.879   15269.1954    0.1
  6252.897   13056.8148    0.1
  6252.914   11520.6998    0.1
  6252.931   10318.7603    0.1
  6252.949   9630.7552    0.1
  6252.966   9477.3304    0.1
  6252.984   9624.0030    0.1
  6253.001   10147.3244    0.1
  6253.018   11330.1161    0.1
  6253.036   13097.6410    0.1
  6253.053   15371.8284    0.1
  6253.071   17693.9174    0.1
  6253.088   21030.5909    0.1
  6253.105   23960.8526    0.1
  6253.123   26438.4319    0.1
  6253.140   28718.8592    0.1
  6253.158   31119.1661    0.1
  6253.175   32910.9505    0.1
  6253.193   34095.9113    0.1
  6253.210   34913.3690    0.1
  6253.227   35581.5056    0.1
  6253.245   36477.5146    0.1
  6253.262   36858.6174    0.1
  6253.280   37072.3145    0.1
  6253.297   37029.3574    0.1
  6253.314   36965.9751    0.1
  6253.332   36789.2881    0.1
  6253.349   36599.6373    0.1
  6253.367   36428.9513    0.1
  6253.384   36156.5682    0.1
  6253.401   35884.3570    0.1
  6253.419   35646.9026    0.1
  6253.436   35415.5516    0.1
  6253.454   34954.3577    0.1
  6253.471   34283.3993    0.1
  6253.488   33341.7162    0.1
  6253.506   32202.2849    0.1
  6253.523   30605.3906    0.1
  6253.541   28208.0600    0.1
  6253.558   25877.8101    0.1
  6253.575   23539.1464    0.1
  6253.593   20481.5689    0.1
  6253.610   17569.5486    0.1
  6253.628   14890.9558    0.1
  6253.645   12876.0352    0.1
  6253.662   11298.5495    0.1
  6253.680   10119.3894    0.1
  6253.697   9885.0190    0.1
  6253.715   9959.2671    0.1
  6253.732   10409.9418    0.1
  6253.749   11602.8248    0.1
  6253.767   13482.5416    0.1
  6253.784   15445.3103    0.1
  6253.802   17778.1937    0.1
  6253.819   20566.8915    0.1
  6253.836   23745.5544    0.1
  6253.854   26258.6188    0.1
  6253.871   28567.3609    0.1
  6253.889   31099.9236    0.1
  6253.906   33031.0659    0.1
  6253.923   34252.2754    0.1
  6253.941   35334.3482    0.1
  6253.958   35961.2405    0.1
  6253.976   35951.2119    0.1
  6253.993   35667.8644    0.1
  6254.010   35151.0881    0.1
  6254.028   34379.0636    0.1
  6254.045   33599.4493    0.1
  6254.063   33032.7382    0.1
  6254.080   32859.4471    0.1
  6254.098   32656.8264    0.1
  6254.115   32644.4649    0.1
  6254.132   32825.6151    0.1
  6254.150   32915.0814    0.1
  6254.167   33122.6078    0.1
  6254.185   32974.4076    0.1
  6254.202   33008.0219    0.1
  6254.219   32739.8387    0.1
  6254.237   32531.0343    0.1
  6254.254   32432.0269    0.1
  6254.272   32351.5665    0.1
  6254.289   32569.8553    0.1
  6254.306   32838.9765    0.1
  6254.324   33309.7863    0.1
  6254.341   33937.3148    0.1
  6254.359   34436.8965    0.1
  6254.376   35202.7759    0.1
  6254.393   35784.3972    0.1
  6254.411   36269.5073    0.1
  6254.428   36762.5948    0.1
  6254.446   37124.1764    0.1
  6254.463   37404.1022    0.1
  6254.480   37364.6581    0.1
  6254.498   37327.7829    0.1
  6254.515   37128.0910    0.1
  6254.533   36834.8566    0.1
  6254.550   36519.5310    0.1
  6254.567   36202.4285    0.1
  6254.585   36213.3416    0.1
  6254.602   36354.4272    0.1
  6254.620   36455.4513    0.1
  6254.637   36817.3510    0.1
  6254.654   37318.7281    0.1
  6254.672   37766.0849    0.1
  6254.689   38238.9557    0.1
  6254.707   38271.5016    0.1
  6254.724   38398.7712    0.1
  6254.741   38276.8122    0.1
  6254.759   37962.1683    0.1
  6254.776   37705.3962    0.1
  6254.794   37078.0234    0.1
  6254.811   36413.3209    0.1
  6254.828   35697.4333    0.1
  6254.846   34890.8449    0.1
  6254.863   33487.4400    0.1
  6254.881   32144.9103    0.1
  6254.898   30866.6322    0.1
  6254.916   29664.3117    0.1
  6254.933   28586.7955    0.1
  6254.950   27973.3417    0.1
  6254.968   27620.0380    0.1
