#  wavelength    Flux         Std.Dev.
#  [Angstroem]   [F(5500)]    [N/A]

  6134.027   44468.0004    0.1
  6134.044   44546.2598    0.1
  6134.062   44621.7912    0.1
  6134.079   44605.6648    0.1
  6134.097   44488.8736    0.1
  6134.114   44399.9440    0.1
  6134.131   44388.5552    0.1
  6134.149   44304.1203    0.1
  6134.166   44134.3954    0.1
  6134.184   43969.1497    0.1
  6134.201   43883.7381    0.1
  6134.218   43800.9205    0.1
  6134.236   43779.4068    0.1
  6134.253   43744.4479    0.1
  6134.271   43657.9216    0.1
  6134.288   43580.8213    0.1
  6134.305   43475.8106    0.1
  6134.323   43520.2535    0.1
  6134.340   43636.0634    0.1
  6134.358   43807.3959    0.1
  6134.375   43978.1983    0.1
  6134.392   43924.0509    0.1
  6134.410   44181.4426    0.1
  6134.427   44130.4866    0.1
  6134.445   44013.7471    0.1
  6134.462   43943.0259    0.1
  6134.479   43711.9818    0.1
  6134.497   43551.7760    0.1
  6134.514   43388.9798    0.1
  6134.532   43262.3995    0.1
  6134.549   43212.9863    0.1
  6134.566   43388.4042    0.1
  6134.584   43559.7936    0.1
  6134.601   43907.8657    0.1
  6134.619   43997.3397    0.1
  6134.636   43999.9652    0.1
  6134.653   43875.3682    0.1
  6134.671   43713.5444    0.1
  6134.688   43546.0975    0.1
  6134.706   43245.1375    0.1
  6134.723   42963.3079    0.1
  6134.740   43044.2906    0.1
  6134.758   43054.7014    0.1
  6134.775   42936.1649    0.1
  6134.793   43269.8151    0.1
  6134.810   43189.4250    0.1
  6134.828   43283.8839    0.1
  6134.845   43367.0587    0.1
  6134.862   43372.1616    0.1
  6134.880   43363.8952    0.1
  6134.897   43213.3125    0.1
  6134.915   42876.0762    0.1
  6134.932   42512.0426    0.1
  6134.949   42097.9630    0.1
  6134.967   41621.7646    0.1
  6134.984   41045.7318    0.1
  6135.002   40237.9435    0.1
  6135.019   39528.4109    0.1
  6135.036   38944.5196    0.1
  6135.054   38536.9102    0.1
  6135.071   38221.3405    0.1
  6135.089   38542.7958    0.1
  6135.106   39061.9527    0.1
  6135.123   39526.9695    0.1
  6135.141   40278.8828    0.1
  6135.158   40995.3335    0.1
  6135.176   41583.9656    0.1
  6135.193   41863.4055    0.1
  6135.210   42089.4282    0.1
  6135.228   42236.0288    0.1
  6135.245   42305.5688    0.1
  6135.263   42278.2937    0.1
  6135.280   42477.6033    0.1
  6135.297   42537.9500    0.1
  6135.315   42875.1643    0.1
  6135.332   43354.0548    0.1
  6135.350   43563.3810    0.1
  6135.367   43727.3328    0.1
  6135.384   43890.4756    0.1
  6135.402   43960.6923    0.1
  6135.419   43919.8764    0.1
  6135.437   43804.4955    0.1
  6135.454   43637.5674    0.1
  6135.471   43416.4475    0.1
  6135.489   42969.9083    0.1
  6135.506   42249.8058    0.1
  6135.524   40842.8580    0.1
  6135.541   38440.6867    0.1
  6135.558   35547.9263    0.1
  6135.576   32209.5694    0.1
  6135.593   28086.4987    0.1
  6135.611   23906.1778    0.1
  6135.628   19894.8077    0.1
  6135.645   17188.2566    0.1
  6135.663   15775.6008    0.1
  6135.680   15795.6911    0.1
  6135.698   17068.0339    0.1
  6135.715   20281.3631    0.1
  6135.733   23451.7330    0.1
  6135.750   27139.1500    0.1
  6135.767   30982.6527    0.1
  6135.785   34430.8159    0.1
  6135.802   37528.3069    0.1
  6135.820   39706.8770    0.1
  6135.837   41282.1820    0.1
  6135.854   42441.3254    0.1
  6135.872   43269.1581    0.1
  6135.889   43839.5890    0.1
  6135.907   44244.1806    0.1
  6135.924   44417.5395    0.1
  6135.941   44460.4372    0.1
  6135.959   44408.9160    0.1
  6135.976   44349.0851    0.1
  6135.994   44049.2083    0.1
  6136.011   43648.8741    0.1
  6136.028   42985.7590    0.1
  6136.046   42043.4517    0.1
  6136.063   40873.6264    0.1
  6136.081   39006.1648    0.1
  6136.098   36948.7699    0.1
  6136.115   34057.6758    0.1
  6136.133   31210.4667    0.1
  6136.150   29006.3777    0.1
  6136.168   27218.5841    0.1
  6136.185   26180.4571    0.1
  6136.202   26870.2797    0.1
  6136.220   28344.1562    0.1
  6136.237   30159.2283    0.1
  6136.255   32529.7395    0.1
  6136.272   34503.0871    0.1
  6136.289   35802.7930    0.1
  6136.307   36085.5761    0.1
  6136.324   35556.2249    0.1
  6136.342   33790.4372    0.1
  6136.359   30990.9062    0.1
  6136.376   27659.6563    0.1
  6136.394   23831.1629    0.1
  6136.411   20239.7798    0.1
  6136.429   16962.0436    0.1
  6136.446   13972.3949    0.1
  6136.463   12394.5046    0.1
  6136.481   11827.7892    0.1
  6136.498   12203.3422    0.1
  6136.516   13572.6279    0.1
  6136.533   15841.3009    0.1
  6136.551   18740.6263    0.1
  6136.568   22971.8154    0.1
  6136.585   27078.4089    0.1
  6136.603   30877.5455    0.1
  6136.620   34577.9038    0.1
  6136.638   37448.8702    0.1
  6136.655   39527.7051    0.1
  6136.672   40964.4612    0.1
  6136.690   41613.4884    0.1
  6136.707   41828.2051    0.1
  6136.725   41727.6356    0.1
  6136.742   41322.2175    0.1
  6136.759   40658.5370    0.1
  6136.777   39905.9303    0.1
  6136.794   38961.5838    0.1
  6136.812   38029.5045    0.1
  6136.829   37084.7358    0.1
  6136.846   36144.6359    0.1
  6136.864   35445.6441    0.1
  6136.881   35088.9379    0.1
  6136.899   35192.2290    0.1
  6136.916   35671.1145    0.1
  6136.933   36789.4242    0.1
  6136.951   37956.3932    0.1
  6136.968   39185.5654    0.1
  6136.986   40391.9963    0.1
  6137.003   41088.5341    0.1
  6137.020   41891.2292    0.1
  6137.038   42482.1505    0.1
  6137.055   42789.5947    0.1
  6137.073   42994.8903    0.1
  6137.090   43110.5243    0.1
  6137.107   43292.5019    0.1
  6137.125   43385.5431    0.1
  6137.142   43361.9961    0.1
  6137.160   43312.2807    0.1
  6137.177   43216.6888    0.1
  6137.194   43174.9904    0.1
  6137.212   43090.5338    0.1
  6137.229   43175.0369    0.1
  6137.247   43045.3577    0.1
  6137.264   43004.9798    0.1
  6137.281   42937.7419    0.1
  6137.299   42947.0576    0.1
  6137.316   42786.7047    0.1
  6137.334   42619.5983    0.1
  6137.351   42577.7195    0.1
  6137.368   42165.0798    0.1
  6137.386   41780.2367    0.1
  6137.403   41497.3432    0.1
  6137.421   41009.0480    0.1
  6137.438   40386.4430    0.1
  6137.456   39730.6593    0.1
  6137.473   38796.5560    0.1
  6137.490   37798.9401    0.1
  6137.508   36544.9668    0.1
  6137.525   35018.9613    0.1
  6137.543   33479.2725    0.1
  6137.560   31314.0958    0.1
  6137.577   28820.3040    0.1
  6137.595   26063.8687    0.1
  6137.612   22671.0074    0.1
  6137.630   19552.1098    0.1
  6137.647   16057.2857    0.1
  6137.664   13055.6091    0.1
  6137.682   11078.9675    0.1
  6137.699   9016.3214    0.1
  6137.717   7692.2540    0.1
  6137.734   7112.4395    0.1
  6137.751   7132.1829    0.1
  6137.769   7610.5357    0.1
  6137.786   8811.4443    0.1
  6137.804   10660.6936    0.1
  6137.821   13062.0251    0.1
  6137.838   16030.7127    0.1
  6137.856   18883.7123    0.1
  6137.873   22124.4199    0.1
  6137.891   25062.8195    0.1
  6137.908   27622.3921    0.1
  6137.925   29461.1211    0.1
  6137.943   30415.5151    0.1
  6137.960   30541.7057    0.1
  6137.978   29576.1620    0.1
  6137.995   28586.3210    0.1
  6138.012   25618.8884    0.1
  6138.030   22649.7128    0.1
  6138.047   19836.9347    0.1
  6138.065   16740.4923    0.1
  6138.082   14242.6866    0.1
  6138.099   12588.0957    0.1
  6138.117   12119.9430    0.1
  6138.134   12932.9755    0.1
  6138.152   14804.6611    0.1
  6138.169   17211.8324    0.1
  6138.186   20035.3586    0.1
  6138.204   23939.7526    0.1
  6138.221   27166.9879    0.1
  6138.239   30062.2985    0.1
  6138.256   32618.8673    0.1
  6138.274   34392.2496    0.1
  6138.291   35890.4575    0.1
  6138.308   36774.5575    0.1
  6138.326   37179.9932    0.1
  6138.343   37336.8409    0.1
  6138.361   37266.2792    0.1
  6138.378   37164.1433    0.1
  6138.395   37168.7309    0.1
  6138.413   37353.2671    0.1
  6138.430   37645.1583    0.1
  6138.448   37899.3932    0.1
  6138.465   38134.5428    0.1
  6138.482   37996.9634    0.1
  6138.500   37459.5495    0.1
  6138.517   36154.1318    0.1
  6138.535   34727.7584    0.1
  6138.552   32908.1740    0.1
  6138.569   30821.6341    0.1
  6138.587   28873.3320    0.1
  6138.604   26806.3115    0.1
  6138.622   25271.6722    0.1
  6138.639   24159.4623    0.1
  6138.656   22983.2796    0.1
  6138.674   21837.4421    0.1
  6138.691   20084.1699    0.1
  6138.709   17929.7581    0.1
  6138.726   15844.4433    0.1
  6138.743   13553.0639    0.1
  6138.761   11494.8391    0.1
  6138.778   10054.8726    0.1
  6138.796   8935.6725    0.1
  6138.813   8453.4264    0.1
  6138.830   8617.7640    0.1
  6138.848   9400.0942    0.1
  6138.865   10750.6066    0.1
  6138.883   12728.3463    0.1
  6138.900   15123.1867    0.1
  6138.917   18535.2470    0.1
  6138.935   21921.4605    0.1
  6138.952   24918.5367    0.1
  6138.970   28139.8008    0.1
