#  wavelength    Flux         Std.Dev.
#  [Angstroem]   [F(5500)]    [N/A]

  6277.028   61284.1768    0.1
  6277.046   61020.0074    0.1
  6277.063   60783.2402    0.1
  6277.081   60241.0247    0.1
  6277.098   59591.1932    0.1
  6277.116   57694.9649    0.1
  6277.133   55209.1940    0.1
  6277.150   52908.8213    0.1
  6277.168   50743.3407    0.1
  6277.185   50017.9724    0.1
  6277.203   51050.7000    0.1
  6277.220   53348.0829    0.1
  6277.237   55409.1379    0.1
  6277.255   57831.6625    0.1
  6277.272   59960.5923    0.1
  6277.290   60601.7294    0.1
  6277.307   60607.9617    0.1
  6277.324   59663.4727    0.1
  6277.342   57948.9958    0.1
  6277.359   55350.3732    0.1
  6277.377   53158.8150    0.1
  6277.394   52272.5944    0.1
  6277.412   52990.7179    0.1
  6277.429   54728.3823    0.1
  6277.446   56775.4144    0.1
  6277.464   57959.7430    0.1
  6277.481   57814.1145    0.1
  6277.499   57376.7445    0.1
  6277.516   56819.7710    0.1
  6277.533   56713.7107    0.1
  6277.551   56887.1953    0.1
  6277.568   57202.7418    0.1
  6277.586   57396.6771    0.1
  6277.603   57617.6046    0.1
  6277.620   57313.5026    0.1
  6277.638   56748.8353    0.1
  6277.655   56271.2400    0.1
  6277.673   56072.8761    0.1
  6277.690   55658.3887    0.1
  6277.708   55317.6665    0.1
  6277.725   55053.7060    0.1
  6277.742   54809.2997    0.1
  6277.760   54458.9714    0.1
  6277.777   54065.7296    0.1
  6277.795   53346.1273    0.1
  6277.812   52785.4228    0.1
  6277.829   50845.5796    0.1
  6277.847   48453.5607    0.1
  6277.864   45799.0646    0.1
  6277.882   43954.7210    0.1
  6277.899   44365.8737    0.1
  6277.916   46138.4582    0.1
  6277.934   48397.4918    0.1
  6277.951   49327.9146    0.1
  6277.969   49561.0050    0.1
  6277.986   48819.4279    0.1
  6278.004   48311.3145    0.1
  6278.021   48547.8785    0.1
  6278.038   49522.3616    0.1
  6278.056   51378.5445    0.1
  6278.073   53652.7708    0.1
  6278.091   55282.0787    0.1
  6278.108   57165.0050    0.1
  6278.125   58689.0487    0.1
  6278.143   58847.4917    0.1
  6278.160   58306.1335    0.1
  6278.178   56571.6526    0.1
  6278.195   55091.7897    0.1
  6278.212   54630.7415    0.1
  6278.230   55769.1195    0.1
  6278.247   58144.7249    0.1
  6278.265   61131.6266    0.1
  6278.282   63092.9055    0.1
  6278.300   64423.2458    0.1
  6278.317   64723.0529    0.1
  6278.334   64047.4064    0.1
  6278.352   63768.4093    0.1
  6278.369   63955.2592    0.1
  6278.387   64369.7472    0.1
  6278.404   65113.3097    0.1
  6278.421   65511.7900    0.1
  6278.439   65903.2706    0.1
  6278.456   65668.6427    0.1
  6278.474   65282.7486    0.1
  6278.491   64444.5102    0.1
  6278.508   63374.7458    0.1
  6278.526   62546.2204    0.1
  6278.543   60888.1792    0.1
  6278.561   59106.0380    0.1
  6278.578   57014.4247    0.1
  6278.595   53323.9172    0.1
  6278.613   49632.0137    0.1
  6278.630   45043.4194    0.1
  6278.648   40971.8484    0.1
  6278.665   39598.0684    0.1
  6278.683   40257.0210    0.1
  6278.700   42857.4868    0.1
  6278.717   46450.8916    0.1
  6278.735   51399.7361    0.1
  6278.752   55510.6080    0.1
  6278.770   58353.1624    0.1
  6278.787   60670.7708    0.1
  6278.804   61435.1290    0.1
  6278.822   62186.7858    0.1
  6278.839   62581.0577    0.1
  6278.857   62506.5000    0.1
  6278.874   62465.1685    0.1
  6278.891   62028.5441    0.1
  6278.909   61449.2474    0.1
  6278.926   60723.9154    0.1
  6278.944   60394.8230    0.1
  6278.961   60713.3502    0.1
  6278.979   61459.3920    0.1
  6278.996   62254.4264    0.1
  6279.013   63097.5831    0.1
  6279.031   63779.5506    0.1
  6279.048   64139.5488    0.1
  6279.066   64362.4602    0.1
  6279.083   64425.8262    0.1
  6279.100   64529.2551    0.1
  6279.118   64596.0569    0.1
  6279.135   64691.8244    0.1
  6279.153   65034.5448    0.1
  6279.170   65310.2263    0.1
  6279.187   65393.4105    0.1
  6279.205   65550.8531    0.1
  6279.222   65858.4308    0.1
  6279.240   65916.7234    0.1
  6279.257   66012.0369    0.1
  6279.275   65939.2581    0.1
  6279.292   65849.0868    0.1
  6279.309   65785.1179    0.1
  6279.327   65797.1541    0.1
  6279.344   65401.0623    0.1
  6279.362   64455.3335    0.1
  6279.379   63341.6039    0.1
  6279.396   60634.9862    0.1
  6279.414   56435.8619    0.1
  6279.431   53505.4102    0.1
  6279.449   51417.1258    0.1
  6279.466   51499.5089    0.1
  6279.483   53669.5714    0.1
  6279.501   57005.8134    0.1
  6279.518   59703.8843    0.1
  6279.536   61061.8262    0.1
  6279.553   61688.6630    0.1
  6279.571   61479.6536    0.1
  6279.588   60487.7882    0.1
  6279.605   58389.5036    0.1
  6279.623   55821.4416    0.1
  6279.640   51666.2174    0.1
  6279.658   47651.0402    0.1
  6279.675   46602.5596    0.1
  6279.692   47745.9583    0.1
  6279.710   51020.7901    0.1
  6279.727   54588.6304    0.1
  6279.745   58192.3070    0.1
  6279.762   59746.9408    0.1
  6279.779   60768.3519    0.1
  6279.797   61362.4294    0.1
  6279.814   61712.9558    0.1
  6279.832   62198.8112    0.1
  6279.849   62563.5088    0.1
  6279.867   62959.3529    0.1
  6279.884   63164.4873    0.1
  6279.901   63107.2504    0.1
  6279.919   63241.7080    0.1
  6279.936   63036.3042    0.1
  6279.954   62772.7279    0.1
  6279.971   62261.3615    0.1
  6279.988   61608.1901    0.1
  6280.006   60854.0046    0.1
  6280.023   60099.1976    0.1
  6280.041   58986.6170    0.1
  6280.058   58117.9530    0.1
  6280.075   57118.5679    0.1
  6280.093   56365.6384    0.1
  6280.110   55905.0735    0.1
  6280.128   55174.6888    0.1
  6280.145   54873.1042    0.1
  6280.163   54839.2467    0.1
  6280.180   54710.4070    0.1
  6280.197   54554.3926    0.1
  6280.215   54589.5252    0.1
  6280.232   54715.2251    0.1
  6280.250   54785.7467    0.1
  6280.267   54987.9018    0.1
  6280.284   55346.4466    0.1
  6280.302   55627.1454    0.1
  6280.319   55874.2175    0.1
  6280.337   56009.4464    0.1
  6280.354   56161.6259    0.1
  6280.371   56053.3199    0.1
  6280.389   55589.3608    0.1
  6280.406   54025.5210    0.1
  6280.424   51287.2079    0.1
  6280.441   48803.7847    0.1
  6280.458   46271.6157    0.1
  6280.476   45972.9365    0.1
  6280.493   47382.6422    0.1
  6280.511   50356.1143    0.1
  6280.528   53504.2957    0.1
  6280.546   55440.8797    0.1
  6280.563   56715.7944    0.1
  6280.580   56837.8894    0.1
  6280.598   56822.1425    0.1
  6280.615   56556.0416    0.1
  6280.633   56209.2817    0.1
  6280.650   55440.6705    0.1
  6280.667   54445.4156    0.1
  6280.685   53564.9979    0.1
  6280.702   52378.5319    0.1
  6280.720   51165.3729    0.1
  6280.737   50117.0870    0.1
  6280.754   48617.5161    0.1
  6280.772   47270.0139    0.1
  6280.789   45738.0971    0.1
  6280.807   44004.2889    0.1
  6280.824   42580.3734    0.1
  6280.842   40811.0846    0.1
  6280.859   38762.0954    0.1
  6280.876   37520.6726    0.1
  6280.894   35294.6362    0.1
  6280.911   32640.4723    0.1
  6280.929   30172.4525    0.1
  6280.946   27373.9195    0.1
  6280.963   25898.8662    0.1
  6280.981   25957.3524    0.1
  6280.998   27230.0427    0.1
  6281.016   28802.7994    0.1
  6281.033   30713.7012    0.1
  6281.050   32431.2742    0.1
  6281.068   33184.3682    0.1
  6281.085   34079.1801    0.1
  6281.103   34923.7069    0.1
  6281.120   35499.0828    0.1
  6281.138   36233.0034    0.1
  6281.155   37038.7508    0.1
  6281.172   37848.7746    0.1
  6281.190   39099.3986    0.1
  6281.207   40251.9168    0.1
  6281.225   41374.5730    0.1
  6281.242   42767.0822    0.1
  6281.259   43821.8302    0.1
  6281.277   45310.8826    0.1
  6281.294   47033.7437    0.1
  6281.312   48169.8249    0.1
  6281.329   49733.7427    0.1
  6281.346   51363.3591    0.1
  6281.364   52590.1646    0.1
  6281.381   54069.1121    0.1
  6281.399   55119.6468    0.1
  6281.416   56125.6400    0.1
  6281.434   57081.8401    0.1
  6281.451   57673.1416    0.1
  6281.468   58339.4705    0.1
  6281.486   58891.9963    0.1
  6281.503   59259.3850    0.1
  6281.521   59753.3861    0.1
  6281.538   60130.2593    0.1
  6281.555   60246.7402    0.1
  6281.573   60397.8727    0.1
  6281.590   60424.3676    0.1
  6281.608   60352.8615    0.1
  6281.625   60138.3173    0.1
  6281.642   59788.5153    0.1
  6281.660   59369.1238    0.1
  6281.677   58074.9828    0.1
  6281.695   56287.1493    0.1
  6281.712   53493.7641    0.1
  6281.730   50322.5591    0.1
  6281.747   48736.7238    0.1
  6281.764   49415.3336    0.1
  6281.782   52030.3597    0.1
  6281.799   54756.7627    0.1
  6281.817   58045.7195    0.1
  6281.834   60529.3150    0.1
  6281.851   61554.3969    0.1
  6281.869   62507.9933    0.1
  6281.886   63268.4258    0.1
  6281.904   63705.3278    0.1
  6281.921   64153.6972    0.1
  6281.938   64324.0396    0.1
  6281.956   64662.9175    0.1
  6281.973   65085.2719    0.1
  6281.991   65396.2220    0.1
  6282.008   65676.2145    0.1
  6282.026   65915.8275    0.1
  6282.043   65967.9278    0.1
  6282.060   66043.3970    0.1
  6282.078   66052.9649    0.1
  6282.095   65879.8589    0.1
  6282.113   65882.8456    0.1
  6282.130   65859.3908    0.1
  6282.147   65695.0308    0.1
  6282.165   65534.7720    0.1
  6282.182   65462.0709    0.1
  6282.200   65516.0786    0.1
  6282.217   65517.9934    0.1
  6282.234   65354.5694    0.1
  6282.252   65169.0173    0.1
  6282.269   65069.5892    0.1
  6282.287   64988.5460    0.1
  6282.304   64686.5622    0.1
  6282.322   64136.7499    0.1
  6282.339   63893.8282    0.1
  6282.356   63497.0928    0.1
  6282.374   63094.5286    0.1
  6282.391   62706.8591    0.1
  6282.409   62186.0725    0.1
  6282.426   61716.3708    0.1
  6282.443   60631.3054    0.1
  6282.461   58480.3976    0.1
  6282.478   56373.0711    0.1
  6282.496   52846.3596    0.1
  6282.513   49350.0840    0.1
  6282.530   48138.2159    0.1
  6282.548   48899.1049    0.1
  6282.565   51471.5890    0.1
  6282.583   53681.8083    0.1
  6282.600   56083.9596    0.1
  6282.617   57265.6903    0.1
  6282.635   57659.7918    0.1
  6282.652   57667.0555    0.1
  6282.670   57493.5979    0.1
  6282.687   57272.6710    0.1
  6282.705   57010.0164    0.1
  6282.722   56748.7808    0.1
  6282.739   56410.2190    0.1
  6282.757   56016.8212    0.1
  6282.774   55776.9673    0.1
  6282.792   55324.0460    0.1
  6282.809   55004.1792    0.1
  6282.826   54699.4304    0.1
  6282.844   54326.1311    0.1
  6282.861   53846.2532    0.1
  6282.879   53351.0397    0.1
  6282.896   52734.6929    0.1
  6282.913   52272.4395    0.1
  6282.931   51832.3244    0.1
  6282.948   51270.4989    0.1
  6282.966   50675.2796    0.1
