#  wavelength    Flux         Std.Dev.
#  [Angstroem]   [F(5500)]    [N/A]

  6250.024   50275.9400    0.1
  6250.041   50282.5979    0.1
  6250.058   50783.5941    0.1
  6250.076   51279.5376    0.1
  6250.093   51831.4597    0.1
  6250.111   52439.4781    0.1
  6250.128   53124.0739    0.1
  6250.146   53709.0258    0.1
  6250.163   54213.9046    0.1
  6250.180   54778.8252    0.1
  6250.198   55455.1668    0.1
  6250.215   55985.9679    0.1
  6250.233   56298.2617    0.1
  6250.250   56687.6207    0.1
  6250.267   56719.2863    0.1
  6250.285   57139.3687    0.1
  6250.302   57529.2932    0.1
  6250.320   57875.9969    0.1
  6250.337   58360.0507    0.1
  6250.354   58676.8792    0.1
  6250.372   58848.9064    0.1
  6250.389   58981.6796    0.1
  6250.407   59125.9547    0.1
  6250.424   59232.0086    0.1
  6250.442   59255.5603    0.1
  6250.459   59277.8126    0.1
  6250.476   59197.8019    0.1
  6250.494   59449.6369    0.1
  6250.511   59473.7085    0.1
  6250.529   59376.5429    0.1
  6250.546   59249.5174    0.1
  6250.563   59019.3146    0.1
  6250.581   58738.0138    0.1
  6250.598   58410.8107    0.1
  6250.616   58017.2873    0.1
  6250.633   57567.0395    0.1
  6250.650   57230.3657    0.1
  6250.668   56957.4381    0.1
  6250.685   56603.7419    0.1
  6250.703   56124.9183    0.1
  6250.720   55771.0122    0.1
  6250.737   55577.1067    0.1
  6250.755   55198.5583    0.1
  6250.772   54714.5649    0.1
  6250.790   54676.1838    0.1
  6250.807   54605.4290    0.1
  6250.825   54335.2841    0.1
  6250.842   54551.3901    0.1
  6250.859   54562.4096    0.1
  6250.877   54495.9747    0.1
  6250.894   54605.4737    0.1
  6250.912   54800.2256    0.1
  6250.929   54974.8428    0.1
  6250.946   55166.5573    0.1
  6250.964   55563.5765    0.1
  6250.981   55987.6053    0.1
  6250.999   56191.9918    0.1
  6251.016   56539.4241    0.1
  6251.033   56996.2134    0.1
  6251.051   57429.6921    0.1
  6251.068   57694.5755    0.1
  6251.086   57786.2799    0.1
  6251.103   58245.6431    0.1
  6251.121   58651.3581    0.1
  6251.138   58956.6838    0.1
  6251.155   59232.9037    0.1
  6251.173   59532.7708    0.1
  6251.190   60067.0535    0.1
  6251.208   60639.2527    0.1
  6251.225   61090.2871    0.1
  6251.242   61286.8269    0.1
  6251.260   61649.3947    0.1
  6251.277   61992.3852    0.1
  6251.295   62364.1336    0.1
  6251.312   62745.4656    0.1
  6251.329   62816.2404    0.1
  6251.347   62979.0133    0.1
  6251.364   63197.1468    0.1
  6251.382   63357.5075    0.1
  6251.399   63386.9641    0.1
  6251.417   63388.1539    0.1
  6251.434   63257.0862    0.1
  6251.451   63320.4805    0.1
  6251.469   63190.8975    0.1
  6251.486   62947.2964    0.1
  6251.504   62629.7476    0.1
  6251.521   62530.2097    0.1
  6251.538   62140.7691    0.1
  6251.556   61696.0657    0.1
  6251.573   61373.8115    0.1
  6251.591   61171.6008    0.1
  6251.608   60718.0953    0.1
  6251.625   60237.9373    0.1
  6251.643   60132.0362    0.1
  6251.660   59838.8985    0.1
  6251.678   59503.3583    0.1
  6251.695   59155.1395    0.1
  6251.713   58770.8729    0.1
  6251.730   58394.5919    0.1
  6251.747   58118.6655    0.1
  6251.765   57708.6988    0.1
  6251.782   57253.5334    0.1
  6251.800   56817.1873    0.1
  6251.817   56283.4302    0.1
  6251.834   55705.5644    0.1
  6251.852   55310.7737    0.1
  6251.869   55076.8953    0.1
  6251.887   54542.8626    0.1
  6251.904   53798.6017    0.1
  6251.921   53068.1562    0.1
  6251.939   52404.2024    0.1
  6251.956   51469.7553    0.1
  6251.974   50506.4069    0.1
  6251.991   49242.8252    0.1
  6252.009   48077.5852    0.1
  6252.026   46785.9556    0.1
  6252.043   45431.4935    0.1
  6252.061   44523.4131    0.1
  6252.078   43346.5351    0.1
  6252.096   42369.2015    0.1
  6252.113   41417.3483    0.1
  6252.130   40643.3462    0.1
  6252.148   40143.5620    0.1
  6252.165   39927.1130    0.1
  6252.183   39516.6288    0.1
  6252.200   39241.8102    0.1
  6252.217   39265.9340    0.1
  6252.235   39378.1193    0.1
  6252.252   39609.8817    0.1
  6252.270   39814.6552    0.1
  6252.287   39882.9310    0.1
  6252.305   40263.9196    0.1
  6252.322   40915.3913    0.1
  6252.339   41525.0825    0.1
  6252.357   41804.4097    0.1
  6252.374   42298.1799    0.1
  6252.392   43127.5101    0.1
  6252.409   44111.5209    0.1
  6252.426   44883.0785    0.1
  6252.444   45681.5614    0.1
  6252.461   46782.6251    0.1
  6252.479   47675.9994    0.1
  6252.496   48661.4732    0.1
  6252.513   49415.4833    0.1
  6252.531   50243.3726    0.1
  6252.548   51035.4091    0.1
  6252.566   51615.9989    0.1
  6252.583   51943.0879    0.1
  6252.601   52328.9066    0.1
  6252.618   52398.8501    0.1
  6252.635   52152.0872    0.1
  6252.653   51872.5879    0.1
  6252.670   51426.4799    0.1
  6252.688   50789.6879    0.1
  6252.705   50052.5117    0.1
  6252.722   49248.7511    0.1
  6252.740   48440.9875    0.1
  6252.757   47504.6271    0.1
  6252.775   46468.0930    0.1
  6252.792   45628.5046    0.1
  6252.809   44523.6407    0.1
  6252.827   43574.8035    0.1
  6252.844   42786.3530    0.1
  6252.862   42106.8821    0.1
  6252.879   41518.4699    0.1
  6252.896   41100.5398    0.1
  6252.914   40719.9365    0.1
  6252.931   40404.0213    0.1
  6252.949   40291.4890    0.1
  6252.966   40143.5473    0.1
  6252.984   40241.0428    0.1
  6253.001   40384.5116    0.1
  6253.018   40517.9622    0.1
  6253.036   40726.1817    0.1
  6253.053   41128.1390    0.1
  6253.071   41523.6072    0.1
  6253.088   41833.7354    0.1
  6253.105   42479.9078    0.1
  6253.123   43112.0288    0.1
  6253.140   43706.1919    0.1
  6253.158   44260.4493    0.1
  6253.175   44782.3768    0.1
  6253.192   45483.7553    0.1
  6253.210   46237.3098    0.1
  6253.227   46826.5867    0.1
  6253.245   47406.5489    0.1
  6253.262   47973.6887    0.1
  6253.280   48627.1478    0.1
  6253.297   49334.1643    0.1
  6253.314   50152.2283    0.1
  6253.332   50809.2659    0.1
  6253.349   51471.1263    0.1
  6253.367   52181.4635    0.1
  6253.384   52662.2991    0.1
  6253.401   53152.2176    0.1
  6253.419   53749.2049    0.1
  6253.436   54372.5538    0.1
  6253.454   54726.4017    0.1
  6253.471   55123.8065    0.1
  6253.488   55591.5253    0.1
  6253.506   55703.7609    0.1
  6253.523   56315.6171    0.1
  6253.541   56722.8842    0.1
  6253.558   57309.1137    0.1
  6253.576   57853.4343    0.1
  6253.593   58212.3391    0.1
  6253.610   58668.2229    0.1
  6253.628   59136.2512    0.1
  6253.645   59667.4232    0.1
  6253.663   60184.9695    0.1
  6253.680   60548.9504    0.1
  6253.697   60945.5405    0.1
  6253.715   61213.1599    0.1
  6253.732   61516.9677    0.1
  6253.750   61735.7972    0.1
  6253.767   61977.3870    0.1
  6253.784   62127.0458    0.1
  6253.802   62165.7181    0.1
  6253.819   62302.7153    0.1
  6253.837   62189.5165    0.1
  6253.854   62221.8104    0.1
  6253.872   62254.9669    0.1
  6253.889   62107.5245    0.1
  6253.906   61918.2579    0.1
  6253.924   61774.3243    0.1
  6253.941   61506.3886    0.1
  6253.959   61212.4490    0.1
  6253.976   60805.9741    0.1
  6253.993   60381.3821    0.1
  6254.011   59884.4266    0.1
  6254.028   59305.5373    0.1
  6254.046   58819.9936    0.1
  6254.063   58285.2405    0.1
  6254.080   57627.0060    0.1
  6254.098   56961.5101    0.1
  6254.115   56281.9456    0.1
  6254.133   55730.0107    0.1
  6254.150   55170.9923    0.1
  6254.168   54608.9595    0.1
  6254.185   54171.8667    0.1
  6254.202   53663.3721    0.1
  6254.220   53252.5322    0.1
  6254.237   52856.9405    0.1
  6254.255   52466.7168    0.1
  6254.272   52176.2649    0.1
  6254.289   51973.2721    0.1
  6254.307   51616.5526    0.1
  6254.324   51256.3414    0.1
  6254.342   50953.9169    0.1
  6254.359   50684.0948    0.1
  6254.376   50265.3569    0.1
  6254.394   49640.4092    0.1
  6254.411   49043.9616    0.1
  6254.429   48464.7428    0.1
  6254.446   47676.1437    0.1
  6254.464   46764.7147    0.1
  6254.481   45949.5393    0.1
  6254.498   45212.1623    0.1
  6254.516   44473.5907    0.1
  6254.533   43583.7820    0.1
  6254.551   42786.2883    0.1
  6254.568   42181.3909    0.1
  6254.585   41618.4738    0.1
  6254.603   41031.0724    0.1
  6254.620   40477.4728    0.1
  6254.638   40223.4879    0.1
  6254.655   40053.0706    0.1
  6254.672   39973.1836    0.1
  6254.690   40009.3962    0.1
  6254.707   40211.7633    0.1
  6254.725   40419.7622    0.1
  6254.742   40735.0450    0.1
  6254.759   41251.1935    0.1
  6254.777   41875.6901    0.1
  6254.794   42479.3525    0.1
  6254.812   43170.9393    0.1
  6254.829   43876.4878    0.1
  6254.847   44584.7340    0.1
  6254.864   45425.4715    0.1
  6254.881   46332.6514    0.1
  6254.899   47197.5052    0.1
  6254.916   48199.6092    0.1
  6254.934   49171.6063    0.1
  6254.951   50183.5774    0.1
  6254.968   51218.5742    0.1
