#  wavelength    Flux         Std.Dev.
#  [Angstroem]   [F(5500)]    [N/A]

  6180.013   63195.9606    0.1
  6180.030   62999.6704    0.1
  6180.048   62874.4123    0.1
  6180.065   63065.8020    0.1
  6180.083   62893.8072    0.1
  6180.100   62465.5310    0.1
  6180.117   62100.4941    0.1
  6180.135   61819.9419    0.1
  6180.152   61462.5541    0.1
  6180.170   61118.9482    0.1
  6180.187   60836.7724    0.1
  6180.205   60657.4249    0.1
  6180.222   60326.9464    0.1
  6180.239   60087.0437    0.1
  6180.257   60038.8639    0.1
  6180.274   59658.2336    0.1
  6180.292   59531.8829    0.1
  6180.309   59254.4088    0.1
  6180.326   59056.0593    0.1
  6180.344   58620.5409    0.1
  6180.361   58044.4309    0.1
  6180.379   57216.1601    0.1
  6180.396   56594.8875    0.1
  6180.413   56010.8288    0.1
  6180.431   55069.3913    0.1
  6180.448   53500.6333    0.1
  6180.466   52683.4122    0.1
  6180.483   51346.0284    0.1
  6180.501   50227.2178    0.1
  6180.518   49467.8714    0.1
  6180.535   48722.1763    0.1
  6180.553   47848.4272    0.1
  6180.570   46833.4224    0.1
  6180.588   46479.2961    0.1
  6180.605   46144.5172    0.1
  6180.622   45721.5710    0.1
  6180.640   45823.0471    0.1
  6180.657   46045.2960    0.1
  6180.675   46303.3865    0.1
  6180.692   46652.2797    0.1
  6180.709   47008.8233    0.1
  6180.727   47310.8860    0.1
  6180.744   47935.7638    0.1
  6180.762   48725.6903    0.1
  6180.779   49308.6649    0.1
  6180.797   50320.9573    0.1
  6180.814   51072.8754    0.1
  6180.831   51923.6851    0.1
  6180.849   52688.6308    0.1
  6180.866   53606.7115    0.1
  6180.884   54789.6456    0.1
  6180.901   55386.4768    0.1
  6180.918   56406.9884    0.1
  6180.936   57296.3308    0.1
  6180.953   57902.3959    0.1
  6180.971   58702.5690    0.1
  6180.988   59345.6243    0.1
  6181.005   59950.8512    0.1
  6181.023   60464.8283    0.1
  6181.040   60913.6657    0.1
  6181.058   61281.6242    0.1
  6181.075   61454.0568    0.1
  6181.093   61712.0645    0.1
  6181.110   62015.7531    0.1
  6181.127   62488.9240    0.1
  6181.145   62897.1852    0.1
  6181.162   63151.4753    0.1
  6181.180   63539.8678    0.1
  6181.197   64118.2338    0.1
  6181.214   64670.2706    0.1
  6181.232   65143.1591    0.1
  6181.249   65106.8579    0.1
  6181.267   66213.3192    0.1
  6181.284   66567.8216    0.1
  6181.301   66698.5787    0.1
  6181.319   67033.1564    0.1
  6181.336   67055.6516    0.1
  6181.354   67122.6249    0.1
  6181.371   67256.5907    0.1
  6181.388   67120.8714    0.1
  6181.406   66959.8147    0.1
  6181.423   66868.6649    0.1
  6181.441   66775.2105    0.1
  6181.458   66911.2118    0.1
  6181.476   66692.8291    0.1
  6181.493   66702.5634    0.1
  6181.510   66620.9271    0.1
  6181.528   66712.5388    0.1
  6181.545   66735.5823    0.1
  6181.563   66754.7898    0.1
  6181.580   66694.5102    0.1
  6181.597   66559.1584    0.1
  6181.615   66502.5116    0.1
  6181.632   66738.2742    0.1
  6181.650   66649.1934    0.1
  6181.667   66424.9700    0.1
  6181.684   66140.4933    0.1
  6181.702   65856.9049    0.1
  6181.719   65475.7435    0.1
  6181.737   65168.8310    0.1
  6181.754   64940.0722    0.1
  6181.772   64587.0186    0.1
  6181.789   64255.4054    0.1
  6181.806   64268.4470    0.1
  6181.824   64393.5144    0.1
  6181.841   64443.6057    0.1
  6181.859   64506.4939    0.1
  6181.876   64838.5124    0.1
  6181.893   64906.7010    0.1
  6181.911   64835.7245    0.1
  6181.928   65321.3407    0.1
  6181.946   64861.8220    0.1
  6181.963   64523.5418    0.1
  6181.980   64242.1835    0.1
  6181.998   63981.7731    0.1
  6182.015   63663.1368    0.1
  6182.033   63116.6926    0.1
  6182.050   62904.9718    0.1
  6182.068   62576.0239    0.1
  6182.085   62268.4978    0.1
  6182.102   61853.4062    0.1
  6182.120   61475.6757    0.1
  6182.137   60996.6030    0.1
  6182.155   60668.4905    0.1
  6182.172   60523.0156    0.1
  6182.189   60377.9802    0.1
  6182.207   60264.1328    0.1
  6182.224   60239.7495    0.1
  6182.242   60344.1560    0.1
  6182.259   60457.3781    0.1
  6182.276   60670.3669    0.1
  6182.294   60980.1892    0.1
  6182.311   61303.7556    0.1
  6182.329   61723.4575    0.1
  6182.346   62083.1541    0.1
  6182.364   62347.1414    0.1
  6182.381   62597.8003    0.1
  6182.398   63009.4836    0.1
  6182.416   63291.2436    0.1
  6182.433   63736.4048    0.1
  6182.451   64042.9418    0.1
  6182.468   64380.8259    0.1
  6182.485   64530.7330    0.1
  6182.503   64354.8598    0.1
  6182.520   64300.5116    0.1
  6182.538   64767.0215    0.1
  6182.555   64531.0592    0.1
  6182.572   64351.5159    0.1
  6182.590   64420.5869    0.1
  6182.607   64238.2629    0.1
  6182.625   63891.5384    0.1
  6182.642   63853.9354    0.1
  6182.660   63807.0438    0.1
  6182.677   63459.7004    0.1
  6182.694   63261.6882    0.1
  6182.712   63249.4315    0.1
  6182.729   62695.1983    0.1
  6182.747   62772.7650    0.1
  6182.764   62791.3918    0.1
  6182.781   62622.6038    0.1
  6182.799   62839.4885    0.1
  6182.816   63303.1767    0.1
  6182.834   63631.8227    0.1
  6182.851   64061.7061    0.1
  6182.868   64569.3977    0.1
  6182.886   65008.5914    0.1
  6182.903   65708.4531    0.1
  6182.921   65716.7887    0.1
  6182.938   66193.4701    0.1
  6182.956   66532.4557    0.1
  6182.973   66656.1253    0.1
  6182.990   66789.1039    0.1
  6183.008   66845.8793    0.1
  6183.025   66643.1111    0.1
  6183.043   66405.1844    0.1
  6183.060   65973.1485    0.1
  6183.077   65776.6957    0.1
  6183.095   65625.4513    0.1
  6183.112   65298.2906    0.1
  6183.130   64753.2464    0.1
  6183.147   64547.7307    0.1
  6183.164   64453.2957    0.1
  6183.182   64312.2602    0.1
  6183.199   64187.2572    0.1
  6183.217   64296.6243    0.1
  6183.234   64522.5425    0.1
  6183.252   64641.3776    0.1
  6183.269   64345.0714    0.1
  6183.286   64159.3116    0.1
  6183.304   64202.9278    0.1
  6183.321   64127.9672    0.1
  6183.339   64036.3567    0.1
  6183.356   63796.4105    0.1
  6183.373   63468.9631    0.1
  6183.391   63147.6634    0.1
  6183.408   62816.3447    0.1
  6183.426   62264.2676    0.1
  6183.443   61920.2251    0.1
  6183.460   61652.7084    0.1
  6183.478   61379.8917    0.1
  6183.495   61072.2686    0.1
  6183.513   60914.8121    0.1
  6183.530   60761.9252    0.1
  6183.547   60622.1662    0.1
  6183.565   60008.8139    0.1
  6183.582   59679.4821    0.1
  6183.600   59343.2356    0.1
  6183.617   58950.4180    0.1
  6183.635   58454.5497    0.1
  6183.652   58141.8164    0.1
  6183.669   57779.7791    0.1
  6183.687   57299.9572    0.1
  6183.704   56861.6597    0.1
  6183.722   56490.8085    0.1
  6183.739   56003.9021    0.1
  6183.756   55857.6785    0.1
  6183.774   55526.4359    0.1
  6183.791   55411.7812    0.1
  6183.809   55395.9341    0.1
  6183.826   55381.9207    0.1
  6183.843   55212.3406    0.1
  6183.861   55328.1376    0.1
  6183.878   55372.9209    0.1
  6183.896   55416.2889    0.1
  6183.913   55458.5189    0.1
  6183.931   55770.5532    0.1
  6183.948   55815.8531    0.1
  6183.965   55944.1231    0.1
  6183.983   56089.1654    0.1
  6184.000   56071.2476    0.1
  6184.018   55864.7763    0.1
  6184.035   55817.9850    0.1
  6184.052   55611.3180    0.1
  6184.070   55715.2857    0.1
  6184.087   55498.8430    0.1
  6184.105   55200.2739    0.1
  6184.122   54888.2576    0.1
  6184.139   54651.3657    0.1
  6184.157   54202.6129    0.1
  6184.174   54157.7547    0.1
  6184.192   54372.9744    0.1
  6184.209   53676.6544    0.1
  6184.227   53648.3037    0.1
  6184.244   53803.0329    0.1
  6184.261   53777.1488    0.1
  6184.279   53759.9074    0.1
  6184.296   53909.3036    0.1
  6184.314   54203.3410    0.1
  6184.331   54560.3214    0.1
  6184.348   54834.4408    0.1
  6184.366   55068.9687    0.1
  6184.383   55591.0057    0.1
  6184.401   56018.2282    0.1
  6184.418   56504.2188    0.1
  6184.435   57372.3210    0.1
  6184.453   57784.0032    0.1
  6184.470   58411.0993    0.1
  6184.488   58989.9678    0.1
  6184.505   59610.7988    0.1
  6184.523   60138.8281    0.1
  6184.540   60655.0679    0.1
  6184.557   61142.4261    0.1
  6184.575   61485.2724    0.1
  6184.592   61799.0616    0.1
  6184.610   62169.1752    0.1
  6184.627   62398.6571    0.1
  6184.644   62208.8264    0.1
  6184.662   62366.2414    0.1
  6184.679   62599.9698    0.1
  6184.697   62393.5129    0.1
  6184.714   62034.6434    0.1
  6184.731   61751.2667    0.1
  6184.749   61276.8244    0.1
  6184.766   61028.7365    0.1
  6184.784   60757.4944    0.1
  6184.801   60580.9095    0.1
  6184.819   60583.8379    0.1
  6184.836   60632.1152    0.1
  6184.853   60684.8856    0.1
  6184.871   60499.9509    0.1
  6184.888   61010.2452    0.1
  6184.906   61211.9422    0.1
  6184.923   61460.3977    0.1
  6184.940   61828.2763    0.1
  6184.958   62323.2441    0.1
  6184.975   62881.9312    0.1
  6184.993   63102.3342    0.1
  6185.010   63108.2119    0.1
  6185.027   63356.3753    0.1
  6185.045   64047.9089    0.1
  6185.062   64329.9262    0.1
  6185.080   64454.8358    0.1
  6185.097   64593.2316    0.1
  6185.115   64578.9020    0.1
  6185.132   64279.6996    0.1
  6185.149   64249.2832    0.1
  6185.167   63967.1336    0.1
  6185.184   63329.2350    0.1
  6185.202   63103.9698    0.1
  6185.219   63124.3999    0.1
  6185.236   63006.8036    0.1
  6185.254   62678.8850    0.1
  6185.271   62655.1959    0.1
  6185.289   62564.6707    0.1
  6185.306   62280.3665    0.1
  6185.323   62361.3007    0.1
  6185.341   62230.4300    0.1
  6185.358   61946.2147    0.1
  6185.376   61727.2446    0.1
  6185.393   61612.6639    0.1
  6185.410   61391.7533    0.1
  6185.428   61130.3484    0.1
  6185.445   60823.4010    0.1
  6185.463   60616.8082    0.1
  6185.480   60622.4168    0.1
  6185.498   60542.2409    0.1
  6185.515   60601.3037    0.1
  6185.532   60639.5941    0.1
  6185.550   60971.2550    0.1
  6185.567   61204.1738    0.1
  6185.585   61330.5735    0.1
  6185.602   61411.9875    0.1
  6185.619   61366.1496    0.1
  6185.637   61470.3382    0.1
  6185.654   61672.1602    0.1
  6185.672   61789.4479    0.1
  6185.689   61824.8192    0.1
  6185.706   61861.1520    0.1
  6185.724   61787.2140    0.1
  6185.741   61707.6997    0.1
  6185.759   61528.2007    0.1
  6185.776   61180.5314    0.1
  6185.794   60850.5079    0.1
  6185.811   60715.3108    0.1
  6185.828   60629.8923    0.1
  6185.846   60370.2645    0.1
  6185.863   60222.6613    0.1
  6185.881   60026.6141    0.1
  6185.898   59841.5943    0.1
  6185.915   59745.6848    0.1
  6185.933   59601.8492    0.1
  6185.950   59635.0824    0.1
  6185.968   59715.7484    0.1
  6185.985   59705.6350    0.1
  6186.002   59756.6533    0.1
  6186.020   59623.4009    0.1
  6186.037   59583.8303    0.1
  6186.055   59759.6864    0.1
  6186.072   59455.2778    0.1
  6186.090   59632.5477    0.1
  6186.107   59632.3692    0.1
  6186.124   59711.9157    0.1
  6186.142   59874.7445    0.1
  6186.159   59964.2917    0.1
  6186.177   59837.7777    0.1
  6186.194   59435.0951    0.1
  6186.211   59384.4462    0.1
  6186.229   59397.3968    0.1
  6186.246   59360.7530    0.1
  6186.264   59310.1032    0.1
  6186.281   58746.5453    0.1
  6186.298   58490.7781    0.1
  6186.316   58202.8111    0.1
  6186.333   57920.2021    0.1
  6186.351   57921.0232    0.1
  6186.368   57420.1719    0.1
  6186.386   56732.2232    0.1
  6186.403   56002.6561    0.1
  6186.420   55219.8716    0.1
  6186.438   54292.0517    0.1
  6186.455   53205.7337    0.1
  6186.473   52811.8862    0.1
  6186.490   51596.5792    0.1
  6186.507   50901.9362    0.1
  6186.525   50069.1236    0.1
  6186.542   49317.8466    0.1
  6186.560   49077.6055    0.1
  6186.577   48684.4070    0.1
  6186.594   48305.1273    0.1
  6186.612   48040.7106    0.1
  6186.629   47757.6743    0.1
  6186.647   47836.1780    0.1
  6186.664   47688.4999    0.1
  6186.682   47061.5997    0.1
  6186.699   47016.8488    0.1
  6186.716   47317.0917    0.1
  6186.734   47343.1620    0.1
  6186.751   47366.0420    0.1
  6186.769   47281.0032    0.1
  6186.786   47254.1246    0.1
  6186.803   47313.1034    0.1
  6186.821   47400.6537    0.1
  6186.838   47360.1465    0.1
  6186.856   47217.7553    0.1
  6186.873   47209.1166    0.1
  6186.890   47154.5592    0.1
  6186.908   47134.9900    0.1
  6186.925   47144.2557    0.1
  6186.943   46972.3237    0.1
  6186.960   47129.5344    0.1
  6186.978   47140.2319    0.1
  6186.995   47016.5147    0.1
  6187.012   46963.9926    0.1
  6187.030   46933.8415    0.1
  6187.047   46956.4860    0.1
  6187.065   47043.2164    0.1
  6187.082   47160.8538    0.1
  6187.099   47471.0721    0.1
  6187.117   47636.2041    0.1
  6187.134   47762.9971    0.1
  6187.152   47903.2159    0.1
  6187.169   48045.6757    0.1
  6187.186   48166.2630    0.1
  6187.204   48587.4174    0.1
  6187.221   48961.3366    0.1
  6187.239   49500.9344    0.1
  6187.256   49906.2935    0.1
  6187.273   50068.0243    0.1
  6187.291   50332.2126    0.1
  6187.308   50648.3359    0.1
  6187.326   51102.4712    0.1
  6187.343   51435.3509    0.1
  6187.361   51736.9079    0.1
  6187.378   51871.3382    0.1
  6187.395   52133.2762    0.1
  6187.413   52434.8495    0.1
  6187.430   52673.8439    0.1
  6187.448   53055.2003    0.1
  6187.465   53309.2026    0.1
  6187.482   53394.2271    0.1
  6187.500   53207.3432    0.1
  6187.517   53436.2174    0.1
  6187.535   53487.7606    0.1
  6187.552   53301.2514    0.1
  6187.569   53205.2787    0.1
  6187.587   53128.2882    0.1
  6187.604   52963.6531    0.1
  6187.622   53049.7732    0.1
  6187.639   52772.5566    0.1
  6187.657   52721.8034    0.1
  6187.674   52618.8659    0.1
  6187.691   52332.0708    0.1
  6187.709   52038.0397    0.1
  6187.726   51703.9176    0.1
  6187.744   51656.2618    0.1
  6187.761   51438.4912    0.1
  6187.778   51237.5677    0.1
  6187.796   51168.9394    0.1
  6187.813   51026.2459    0.1
  6187.831   51073.1042    0.1
  6187.848   51117.6644    0.1
  6187.865   51288.4526    0.1
  6187.883   51460.3960    0.1
  6187.900   51539.2411    0.1
  6187.918   51759.3113    0.1
  6187.935   52019.0198    0.1
  6187.953   52173.3357    0.1
  6187.970   52276.1858    0.1
  6187.987   52388.7505    0.1
  6188.005   52507.0525    0.1
  6188.022   52565.1423    0.1
  6188.040   52959.0672    0.1
  6188.057   53120.7502    0.1
  6188.074   53211.0847    0.1
  6188.092   53409.7539    0.1
  6188.109   53589.5306    0.1
  6188.127   53487.5154    0.1
  6188.144   53073.1091    0.1
  6188.161   53494.8057    0.1
  6188.179   52862.3367    0.1
  6188.196   52676.0735    0.1
  6188.214   52503.1891    0.1
  6188.231   52148.0729    0.1
  6188.249   51459.5767    0.1
  6188.266   50871.0979    0.1
  6188.283   50672.4344    0.1
  6188.301   49949.6244    0.1
  6188.318   49430.5510    0.1
  6188.336   48800.6834    0.1
  6188.353   48427.4322    0.1
  6188.370   47972.8058    0.1
  6188.388   47801.6775    0.1
  6188.405   47667.8264    0.1
  6188.423   47641.4325    0.1
  6188.440   47543.1384    0.1
  6188.457   47867.1683    0.1
  6188.475   48137.9992    0.1
  6188.492   48729.7414    0.1
  6188.510   49175.0110    0.1
  6188.527   49718.5196    0.1
  6188.545   50408.1694    0.1
  6188.562   51378.7471    0.1
  6188.579   52121.9377    0.1
  6188.597   52860.5482    0.1
  6188.614   53615.0217    0.1
  6188.632   54462.3640    0.1
  6188.649   55333.0597    0.1
  6188.666   56089.0900    0.1
  6188.684   56062.3192    0.1
  6188.701   56625.6158    0.1
  6188.719   57466.1114    0.1
  6188.736   58097.0008    0.1
  6188.753   58441.9750    0.1
  6188.771   58899.9398    0.1
  6188.788   59155.5013    0.1
  6188.806   59690.7400    0.1
  6188.823   59818.0941    0.1
  6188.841   59784.3512    0.1
  6188.858   59795.1112    0.1
  6188.875   59603.3100    0.1
  6188.893   59530.0377    0.1
  6188.910   59257.6025    0.1
  6188.928   58935.5930    0.1
  6188.945   58760.4653    0.1
  6188.962   58556.8423    0.1
  6188.980   58228.8556    0.1
  6188.997   57925.7509    0.1
  6189.015   57464.2043    0.1
  6189.032   57055.9722    0.1
  6189.049   56603.8911    0.1
  6189.067   56124.7851    0.1
  6189.084   55545.3840    0.1
  6189.102   55357.1327    0.1
  6189.119   54666.3067    0.1
  6189.137   54053.0585    0.1
  6189.154   53435.5425    0.1
  6189.171   52858.9971    0.1
  6189.189   52341.8587    0.1
  6189.206   51598.5900    0.1
  6189.224   50766.1569    0.1
  6189.241   50098.7718    0.1
  6189.258   49562.6674    0.1
  6189.276   48901.2498    0.1
  6189.293   48162.9166    0.1
  6189.311   47745.9813    0.1
  6189.328   47300.0044    0.1
  6189.345   46711.8889    0.1
  6189.363   46311.4612    0.1
  6189.380   46048.1310    0.1
  6189.398   45947.1082    0.1
  6189.415   45914.1694    0.1
  6189.432   45944.5375    0.1
  6189.450   45979.9813    0.1
  6189.467   46156.5727    0.1
  6189.485   46296.8466    0.1
  6189.502   46385.6853    0.1
  6189.520   46423.2533    0.1
  6189.537   46452.5693    0.1
  6189.554   46485.2098    0.1
  6189.572   46408.9947    0.1
  6189.589   46281.6342    0.1
  6189.607   46273.6143    0.1
  6189.624   46130.8616    0.1
  6189.641   45821.8758    0.1
  6189.659   45722.8577    0.1
  6189.676   45637.1668    0.1
  6189.694   45514.7391    0.1
  6189.711   45415.5148    0.1
  6189.728   45517.9525    0.1
  6189.746   45547.4402    0.1
  6189.763   45638.8191    0.1
  6189.781   45833.1084    0.1
  6189.798   46170.4576    0.1
  6189.816   46585.4062    0.1
  6189.833   47178.3194    0.1
  6189.850   47835.2797    0.1
  6189.868   48521.0540    0.1
  6189.885   49295.2069    0.1
  6189.903   50034.0840    0.1
  6189.920   50835.8075    0.1
  6189.937   51607.8976    0.1
  6189.955   52232.3648    0.1
  6189.972   52928.0073    0.1
  6189.990   53446.3959    0.1
  6190.007   54015.0527    0.1
  6190.024   54421.4040    0.1
  6190.042   54700.3861    0.1
  6190.059   54914.4548    0.1
  6190.077   55185.8606    0.1
  6190.094   55383.2057    0.1
  6190.112   55578.2787    0.1
  6190.129   55628.3474    0.1
  6190.146   55594.4630    0.1
  6190.164   55569.0326    0.1
  6190.181   55465.6745    0.1
  6190.199   55268.4807    0.1
  6190.216   55077.2461    0.1
  6190.233   54955.4182    0.1
  6190.251   54833.1865    0.1
  6190.268   54669.8191    0.1
  6190.286   54514.4492    0.1
  6190.303   54367.7973    0.1
  6190.320   54243.2941    0.1
  6190.338   54083.0340    0.1
  6190.355   54018.7265    0.1
  6190.373   53977.1492    0.1
  6190.390   54033.1655    0.1
  6190.408   54094.5777    0.1
  6190.425   54288.2259    0.1
  6190.442   54374.7711    0.1
  6190.460   54417.3070    0.1
  6190.477   54470.1196    0.1
  6190.495   54643.2400    0.1
  6190.512   54738.3561    0.1
  6190.529   54819.0437    0.1
  6190.547   54874.5240    0.1
  6190.564   54667.7144    0.1
  6190.582   54667.7121    0.1
  6190.599   54628.7999    0.1
  6190.616   54493.5499    0.1
  6190.634   54279.3288    0.1
  6190.651   53951.0424    0.1
  6190.669   53665.0143    0.1
  6190.686   53277.5087    0.1
  6190.704   53165.2604    0.1
  6190.721   52693.2484    0.1
  6190.738   52226.2430    0.1
  6190.756   51900.9926    0.1
  6190.773   51529.1309    0.1
  6190.791   51197.0429    0.1
  6190.808   50931.6520    0.1
  6190.825   50737.2466    0.1
  6190.843   50593.9040    0.1
  6190.860   50507.6607    0.1
  6190.878   50487.5749    0.1
  6190.895   50486.7509    0.1
  6190.912   50633.9616    0.1
  6190.930   50800.2562    0.1
  6190.947   51018.8013    0.1
  6190.965   51224.5226    0.1
  6190.982   51422.5705    0.1
  6191.000   51651.0825    0.1
  6191.017   51875.6170    0.1
  6191.034   52033.3809    0.1
  6191.052   52177.6448    0.1
  6191.069   52220.0237    0.1
  6191.087   52224.3782    0.1
  6191.104   52180.5048    0.1
  6191.121   52102.7143    0.1
  6191.139   52002.7058    0.1
  6191.156   51792.2411    0.1
  6191.174   51553.7676    0.1
  6191.191   51287.2003    0.1
  6191.208   51010.0558    0.1
  6191.226   50712.4530    0.1
  6191.243   50276.7427    0.1
  6191.261   49786.0237    0.1
  6191.278   49240.5676    0.1
  6191.295   48700.7719    0.1
  6191.313   48082.3014    0.1
  6191.330   47364.2294    0.1
  6191.348   46593.4560    0.1
  6191.365   45812.3322    0.1
  6191.383   45065.5016    0.1
  6191.400   44366.8614    0.1
  6191.417   43665.7057    0.1
  6191.435   42974.8405    0.1
  6191.452   42305.1762    0.1
  6191.470   41715.2301    0.1
  6191.487   41163.5487    0.1
  6191.504   40620.0235    0.1
  6191.522   40232.0182    0.1
  6191.539   39840.7775    0.1
  6191.557   39532.5731    0.1
  6191.574   39224.2353    0.1
  6191.591   39003.9545    0.1
  6191.609   38908.0755    0.1
  6191.626   38816.4808    0.1
  6191.644   38756.0998    0.1
  6191.661   38692.4263    0.1
  6191.679   38659.1800    0.1
  6191.696   38656.0284    0.1
  6191.713   38554.9041    0.1
  6191.731   38480.2359    0.1
  6191.748   38493.1547    0.1
  6191.766   38454.0061    0.1
  6191.783   38332.9138    0.1
  6191.800   38187.1375    0.1
  6191.818   38070.1463    0.1
  6191.835   37895.4634    0.1
  6191.853   37711.8999    0.1
  6191.870   37577.0198    0.1
  6191.887   37385.6382    0.1
  6191.905   37237.0483    0.1
  6191.922   37151.0754    0.1
  6191.940   37084.6068    0.1
  6191.957   37098.7415    0.1
  6191.975   37019.7241    0.1
  6191.992   37043.3411    0.1
  6192.009   37064.5657    0.1
  6192.027   37127.1410    0.1
  6192.044   37108.1226    0.1
  6192.062   37325.5463    0.1
  6192.079   37484.1949    0.1
  6192.096   37615.5739    0.1
  6192.114   37832.9844    0.1
  6192.131   38265.0847    0.1
  6192.149   38655.7504    0.1
  6192.166   39116.6151    0.1
  6192.183   39461.3796    0.1
  6192.201   40140.1529    0.1
  6192.218   40967.5460    0.1
  6192.236   41647.3772    0.1
  6192.253   42333.1210    0.1
  6192.271   43222.9698    0.1
  6192.288   44159.7644    0.1
  6192.305   45024.5006    0.1
  6192.323   45750.7309    0.1
  6192.340   46418.6893    0.1
  6192.358   47183.7191    0.1
  6192.375   47931.9261    0.1
  6192.392   48492.2552    0.1
  6192.410   49003.0834    0.1
  6192.427   49304.3234    0.1
  6192.445   49464.3723    0.1
  6192.462   49609.4359    0.1
  6192.479   49730.9081    0.1
  6192.497   49842.8342    0.1
  6192.514   49778.8835    0.1
  6192.532   49700.1058    0.1
  6192.549   49632.4300    0.1
  6192.567   49639.5094    0.1
  6192.584   49702.2962    0.1
  6192.601   49696.8003    0.1
  6192.619   49787.1948    0.1
  6192.636   49882.6756    0.1
  6192.654   49979.1581    0.1
  6192.671   50085.1814    0.1
  6192.688   50192.7841    0.1
  6192.706   50153.8804    0.1
  6192.723   50242.8450    0.1
  6192.741   50762.2452    0.1
  6192.758   50721.8084    0.1
  6192.775   51085.8605    0.1
  6192.793   51309.0838    0.1
  6192.810   51470.0612    0.1
  6192.828   51676.8225    0.1
  6192.845   51955.1953    0.1
  6192.863   51973.8478    0.1
  6192.880   52199.4287    0.1
  6192.897   52390.5332    0.1
  6192.915   52537.8480    0.1
  6192.932   52529.8651    0.1
  6192.950   52575.2902    0.1
  6192.967   52614.5521    0.1
  6192.984   52622.1775    0.1
  6193.002   52660.0268    0.1
  6193.019   52670.8231    0.1
  6193.037   52793.8131    0.1
  6193.054   52720.3169    0.1
  6193.071   52641.4581    0.1
  6193.089   52541.7698    0.1
  6193.106   52302.4810    0.1
  6193.124   52167.4891    0.1
  6193.141   52232.3184    0.1
  6193.159   51955.2525    0.1
  6193.176   52008.4930    0.1
  6193.193   51857.2234    0.1
  6193.211   51699.0681    0.1
  6193.228   51732.2683    0.1
  6193.246   51561.8380    0.1
  6193.263   51441.0809    0.1
  6193.280   51309.0049    0.1
  6193.298   51190.6493    0.1
  6193.315   51161.8062    0.1
  6193.333   51396.3304    0.1
  6193.350   51552.2978    0.1
  6193.367   51754.7460    0.1
  6193.385   52160.2046    0.1
  6193.402   52748.2551    0.1
  6193.420   53265.1677    0.1
  6193.437   53849.3083    0.1
  6193.454   54371.4021    0.1
  6193.472   54789.1727    0.1
  6193.489   55319.1181    0.1
  6193.507   55761.3117    0.1
  6193.524   55976.0345    0.1
  6193.542   56047.6594    0.1
  6193.559   56107.5145    0.1
  6193.576   56238.8896    0.1
  6193.594   56077.1211    0.1
  6193.611   55747.4444    0.1
  6193.629   55471.8074    0.1
  6193.646   55196.7852    0.1
  6193.663   54866.5331    0.1
  6193.681   54539.4355    0.1
  6193.698   54127.8095    0.1
  6193.716   53892.2974    0.1
  6193.733   53586.1221    0.1
  6193.750   53373.6508    0.1
  6193.768   53405.1789    0.1
  6193.785   53125.5955    0.1
  6193.803   52992.0322    0.1
  6193.820   53050.8936    0.1
  6193.838   52941.2842    0.1
  6193.855   52797.1451    0.1
  6193.872   52537.1064    0.1
  6193.890   52349.3289    0.1
  6193.907   52090.3073    0.1
  6193.925   51999.4509    0.1
  6193.942   51775.8804    0.1
  6193.959   51146.3056    0.1
  6193.977   51046.2283    0.1
  6193.994   50692.6421    0.1
  6194.012   50421.6434    0.1
  6194.029   50261.9014    0.1
  6194.046   50106.1330    0.1
  6194.064   49923.1428    0.1
  6194.081   49966.0818    0.1
  6194.099   50000.0622    0.1
  6194.116   50216.9805    0.1
  6194.134   50372.5503    0.1
  6194.151   50540.7674    0.1
  6194.168   50981.8086    0.1
  6194.186   51240.3720    0.1
  6194.203   51552.4254    0.1
  6194.221   52030.2027    0.1
  6194.238   52545.7391    0.1
  6194.255   52907.3887    0.1
  6194.273   53176.1532    0.1
  6194.290   53408.5813    0.1
  6194.308   53643.9267    0.1
  6194.325   53809.0711    0.1
  6194.342   53865.9364    0.1
  6194.360   54005.0797    0.1
  6194.377   54124.3306    0.1
  6194.395   54052.6422    0.1
  6194.412   54124.2041    0.1
  6194.430   54256.5680    0.1
  6194.447   54284.5175    0.1
  6194.464   54348.8926    0.1
  6194.482   54387.4374    0.1
  6194.499   54683.9033    0.1
  6194.517   54774.7795    0.1
  6194.534   54761.3676    0.1
  6194.551   55043.4852    0.1
  6194.569   55497.9184    0.1
  6194.586   55750.9083    0.1
  6194.604   56115.6879    0.1
  6194.621   56234.1808    0.1
  6194.638   56462.7721    0.1
  6194.656   56634.8119    0.1
  6194.673   56738.7734    0.1
  6194.691   56899.9515    0.1
  6194.708   56813.3632    0.1
  6194.726   56786.5316    0.1
  6194.743   56734.5364    0.1
  6194.760   56736.8339    0.1
  6194.778   56659.9844    0.1
  6194.795   56555.9090    0.1
  6194.813   56316.8033    0.1
  6194.830   56255.5788    0.1
  6194.847   56031.9590    0.1
  6194.865   55932.9410    0.1
  6194.882   56047.9247    0.1
  6194.900   55565.5570    0.1
  6194.917   55589.8894    0.1
  6194.934   55573.9571    0.1
  6194.952   55743.7841    0.1
  6194.969   55758.5696    0.1
  6194.987   55797.5658    0.1
  6195.004   55869.7435    0.1
  6195.022   55872.7215    0.1
  6195.039   55917.5537    0.1
  6195.056   56030.0935    0.1
  6195.074   55956.7843    0.1
  6195.091   56089.6947    0.1
  6195.109   56414.6175    0.1
  6195.126   56596.2289    0.1
  6195.143   56865.5176    0.1
  6195.161   56799.3881    0.1
  6195.178   56982.3847    0.1
  6195.196   57243.8743    0.1
  6195.213   57514.9139    0.1
  6195.230   57720.8975    0.1
  6195.248   57797.2626    0.1
  6195.265   57856.3714    0.1
  6195.283   57977.2731    0.1
  6195.300   58033.0705    0.1
  6195.317   57933.9726    0.1
  6195.335   57813.5213    0.1
  6195.352   57770.9147    0.1
  6195.370   57500.9138    0.1
  6195.387   57325.0703    0.1
  6195.405   57170.2920    0.1
  6195.422   56998.1003    0.1
  6195.439   56818.2027    0.1
  6195.457   56802.8266    0.1
  6195.474   56721.2889    0.1
  6195.492   56650.8376    0.1
  6195.509   56630.0018    0.1
  6195.526   56613.0213    0.1
  6195.544   56664.1696    0.1
  6195.561   56608.8629    0.1
  6195.579   56701.3884    0.1
  6195.596   56805.3106    0.1
  6195.613   56864.8291    0.1
  6195.631   56852.1355    0.1
  6195.648   56807.8337    0.1
  6195.666   56713.7483    0.1
  6195.683   56497.6647    0.1
  6195.701   56220.9476    0.1
  6195.718   55847.0411    0.1
  6195.735   55521.1723    0.1
  6195.753   55214.9552    0.1
  6195.770   54919.1942    0.1
  6195.788   54737.1022    0.1
  6195.805   54490.0621    0.1
  6195.822   54419.3321    0.1
  6195.840   54272.7863    0.1
  6195.857   54197.6927    0.1
  6195.875   53904.7679    0.1
  6195.892   53891.0397    0.1
  6195.909   53894.9285    0.1
  6195.927   53862.1909    0.1
  6195.944   53892.3127    0.1
  6195.962   54151.5048    0.1
  6195.979   54242.6760    0.1
  6195.997   54357.4140    0.1
  6196.014   54395.3282    0.1
  6196.031   54680.2996    0.1
  6196.049   54926.5030    0.1
  6196.066   55203.0692    0.1
  6196.084   55486.3909    0.1
  6196.101   55678.5928    0.1
  6196.118   55972.4628    0.1
  6196.136   56267.4640    0.1
  6196.153   56525.9506    0.1
  6196.171   56731.0578    0.1
  6196.188   56961.9558    0.1
  6196.205   57130.2701    0.1
  6196.223   57356.8862    0.1
  6196.240   57393.4531    0.1
  6196.258   57475.5516    0.1
  6196.275   57603.0678    0.1
  6196.293   57596.9262    0.1
  6196.310   57319.3572    0.1
  6196.327   57073.1355    0.1
  6196.345   56730.8254    0.1
  6196.362   56286.5052    0.1
  6196.380   55939.7713    0.1
  6196.397   55568.2252    0.1
  6196.414   55259.9044    0.1
  6196.432   54883.6950    0.1
  6196.449   54554.8796    0.1
  6196.467   54191.4344    0.1
  6196.484   54006.7019    0.1
  6196.501   53742.7937    0.1
  6196.519   53717.3721    0.1
  6196.536   53728.9697    0.1
  6196.554   53729.2749    0.1
  6196.571   53896.5149    0.1
  6196.589   54176.7952    0.1
  6196.606   54443.7859    0.1
  6196.623   54531.6393    0.1
  6196.641   54744.2891    0.1
  6196.658   55127.0156    0.1
  6196.676   55235.9057    0.1
  6196.693   55504.9838    0.1
  6196.710   55709.3658    0.1
  6196.728   55908.7261    0.1
  6196.745   56133.4416    0.1
  6196.763   56251.5671    0.1
  6196.780   56309.8202    0.1
  6196.797   56397.0484    0.1
  6196.815   56549.5783    0.1
  6196.832   56787.9308    0.1
  6196.850   56873.8649    0.1
  6196.867   56813.6462    0.1
  6196.885   56711.9216    0.1
  6196.902   56746.3253    0.1
  6196.919   56622.6421    0.1
  6196.937   56543.7073    0.1
  6196.954   56412.4252    0.1
  6196.972   56290.3293    0.1
  6196.989   56244.8257    0.1
  6197.006   56176.2768    0.1
  6197.024   56095.4445    0.1
  6197.041   56043.3489    0.1
  6197.059   56029.8148    0.1
  6197.076   56022.4736    0.1
  6197.093   55952.2974    0.1
  6197.111   56316.1175    0.1
  6197.128   56454.3347    0.1
  6197.146   56575.4003    0.1
  6197.163   56534.6818    0.1
  6197.181   56593.3663    0.1
  6197.198   56839.4384    0.1
  6197.215   56929.6528    0.1
  6197.233   57088.9702    0.1
  6197.250   57112.6237    0.1
  6197.268   57203.8224    0.1
  6197.285   57288.3441    0.1
  6197.302   57242.3247    0.1
  6197.320   57413.7302    0.1
  6197.337   57365.9621    0.1
  6197.355   57434.6705    0.1
  6197.372   57386.6309    0.1
  6197.389   57315.9150    0.1
  6197.407   57391.5541    0.1
  6197.424   57274.9729    0.1
  6197.442   57350.5984    0.1
  6197.459   57353.2442    0.1
  6197.476   57436.3187    0.1
  6197.494   57825.6379    0.1
  6197.511   57943.4328    0.1
  6197.529   58003.2683    0.1
  6197.546   57988.9100    0.1
  6197.564   58451.6350    0.1
  6197.581   58554.7333    0.1
  6197.598   58724.6478    0.1
  6197.616   59121.7258    0.1
  6197.633   59375.0257    0.1
  6197.651   59473.6255    0.1
  6197.668   59497.9452    0.1
  6197.685   59570.5484    0.1
  6197.703   59703.6046    0.1
  6197.720   59951.2270    0.1
  6197.738   59961.6373    0.1
  6197.755   59777.0992    0.1
  6197.772   59691.1808    0.1
  6197.790   59489.9498    0.1
  6197.807   59217.1147    0.1
  6197.825   58909.8842    0.1
  6197.842   58564.6506    0.1
  6197.860   58194.2516    0.1
  6197.877   57972.7649    0.1
  6197.894   57630.6976    0.1
  6197.912   57198.8707    0.1
  6197.929   56765.8542    0.1
  6197.947   56525.8423    0.1
  6197.964   56271.4465    0.1
  6197.981   56043.7145    0.1
  6197.999   55846.9104    0.1
  6198.016   55590.8544    0.1
  6198.034   55637.4528    0.1
  6198.051   55608.4954    0.1
  6198.068   55558.8715    0.1
  6198.086   55583.7609    0.1
  6198.103   55723.6245    0.1
  6198.121   55867.2332    0.1
  6198.138   56166.8301    0.1
  6198.156   56490.4699    0.1
  6198.173   56815.3550    0.1
  6198.190   57254.7479    0.1
  6198.208   57665.4352    0.1
  6198.225   58163.2492    0.1
  6198.243   58682.1663    0.1
  6198.260   59303.0884    0.1
  6198.277   59991.9292    0.1
  6198.295   60291.8671    0.1
  6198.312   60854.9006    0.1
  6198.330   61388.3985    0.1
  6198.347   61835.8091    0.1
  6198.364   62251.0757    0.1
  6198.382   62526.4639    0.1
  6198.399   62776.0458    0.1
  6198.417   63016.7157    0.1
  6198.434   62868.6804    0.1
  6198.452   63021.9373    0.1
  6198.469   62927.5184    0.1
  6198.486   62800.3519    0.1
  6198.504   62624.0466    0.1
  6198.521   62425.9526    0.1
  6198.539   62022.5147    0.1
  6198.556   61588.5434    0.1
  6198.573   61367.2546    0.1
  6198.591   60844.0028    0.1
  6198.608   60237.0947    0.1
  6198.626   59687.8010    0.1
  6198.643   59068.5413    0.1
  6198.660   58497.6942    0.1
  6198.678   57932.3922    0.1
  6198.695   57512.2469    0.1
  6198.713   57159.2712    0.1
  6198.730   56775.4914    0.1
  6198.748   56568.8838    0.1
  6198.765   56552.0871    0.1
  6198.782   56606.5546    0.1
  6198.800   56810.5969    0.1
  6198.817   57099.5304    0.1
  6198.835   57513.5129    0.1
  6198.852   57847.0492    0.1
  6198.869   58149.5998    0.1
  6198.887   58513.1403    0.1
  6198.904   58870.7260    0.1
  6198.922   59203.6909    0.1
  6198.939   59638.7624    0.1
  6198.956   59899.3625    0.1
  6198.974   60160.5703    0.1
  6198.991   60418.2643    0.1
  6199.009   60650.8889    0.1
  6199.026   60933.1252    0.1
  6199.044   61062.0421    0.1
  6199.061   61438.9475    0.1
  6199.078   61611.6426    0.1
  6199.096   61758.7335    0.1
  6199.113   61652.9776    0.1
  6199.131   61625.0159    0.1
  6199.148   61330.0993    0.1
  6199.165   60927.8881    0.1
  6199.183   60462.6366    0.1
  6199.200   59612.7559    0.1
  6199.218   58664.8323    0.1
  6199.235   57594.0548    0.1
  6199.252   56198.1071    0.1
  6199.270   54767.6417    0.1
  6199.287   53181.4887    0.1
  6199.305   51675.5264    0.1
  6199.322   50318.4077    0.1
  6199.339   48721.4411    0.1
  6199.357   47302.3642    0.1
  6199.374   45782.0874    0.1
  6199.392   44495.9295    0.1
  6199.409   43450.4613    0.1
  6199.427   42273.2892    0.1
  6199.444   41235.7521    0.1
  6199.461   40318.9346    0.1
  6199.479   39640.6054    0.1
  6199.496   39197.8197    0.1
  6199.514   38812.8518    0.1
  6199.531   38394.0222    0.1
  6199.548   38216.1341    0.1
  6199.566   38116.0926    0.1
  6199.583   38160.7585    0.1
  6199.601   38250.3509    0.1
  6199.618   38534.7157    0.1
  6199.635   38525.8028    0.1
  6199.653   38854.3696    0.1
  6199.670   39167.5059    0.1
  6199.688   39559.0654    0.1
  6199.705   40050.3344    0.1
  6199.723   40571.7324    0.1
  6199.740   41206.3670    0.1
  6199.757   41774.1010    0.1
  6199.775   42365.5303    0.1
  6199.792   42932.8127    0.1
  6199.810   43397.1334    0.1
  6199.827   43997.5311    0.1
  6199.844   44482.5571    0.1
  6199.862   45036.8918    0.1
  6199.879   45727.5747    0.1
  6199.897   46190.9025    0.1
  6199.914   46816.1358    0.1
  6199.931   47434.7467    0.1
  6199.949   47968.0915    0.1
  6199.966   48517.7281    0.1
  6199.984   49082.5704    0.1
  6200.001   49736.0265    0.1
  6200.019   50455.3261    0.1
  6200.036   51344.8651    0.1
  6200.053   52029.8895    0.1
  6200.071   52712.1862    0.1
  6200.088   53427.1123    0.1
  6200.106   54155.1333    0.1
  6200.123   54475.2238    0.1
  6200.140   55180.7805    0.1
  6200.158   55218.5112    0.1
  6200.175   55668.2488    0.1
  6200.193   55967.1933    0.1
  6200.210   56258.9335    0.1
  6200.227   56478.5075    0.1
  6200.245   56621.8092    0.1
  6200.262   56711.1297    0.1
  6200.280   56727.2805    0.1
  6200.297   56897.1461    0.1
  6200.315   56917.4957    0.1
  6200.332   56907.9899    0.1
  6200.349   56837.8743    0.1
  6200.367   56729.2152    0.1
  6200.384   56679.9988    0.1
  6200.402   56241.3896    0.1
  6200.419   55829.3646    0.1
  6200.436   55456.5101    0.1
  6200.454   54882.2474    0.1
  6200.471   54335.7912    0.1
  6200.489   53373.2280    0.1
  6200.506   52274.2301    0.1
  6200.523   51273.5558    0.1
  6200.541   50224.0508    0.1
  6200.558   49168.0699    0.1
  6200.576   47912.2535    0.1
  6200.593   46732.7715    0.1
  6200.611   45733.1685    0.1
  6200.628   44768.0440    0.1
  6200.645   44008.1983    0.1
  6200.663   43370.1140    0.1
  6200.680   42826.9461    0.1
  6200.698   42493.8189    0.1
  6200.715   42447.3177    0.1
  6200.732   42445.7476    0.1
  6200.750   42532.1650    0.1
  6200.767   42754.2775    0.1
  6200.785   43002.1988    0.1
  6200.802   43368.1612    0.1
  6200.819   43824.6277    0.1
  6200.837   44324.6090    0.1
  6200.854   44868.9542    0.1
  6200.872   45350.7168    0.1
  6200.889   45953.9360    0.1
  6200.907   46493.8950    0.1
  6200.924   47027.3144    0.1
  6200.941   47733.5629    0.1
  6200.959   48306.6440    0.1
  6200.976   49057.2620    0.1
  6200.994   49736.3886    0.1
  6201.011   50205.1924    0.1
  6201.028   50909.7799    0.1
  6201.046   51482.4407    0.1
  6201.063   51903.5232    0.1
  6201.081   52432.4433    0.1
  6201.098   53038.3198    0.1
  6201.115   53364.9224    0.1
  6201.133   53666.9343    0.1
  6201.150   53860.9581    0.1
  6201.168   54016.2928    0.1
  6201.185   54045.2200    0.1
  6201.202   54129.3510    0.1
  6201.220   54169.5903    0.1
  6201.237   54168.0010    0.1
  6201.255   53950.9706    0.1
  6201.272   53771.0020    0.1
  6201.290   53732.5331    0.1
  6201.307   53727.8932    0.1
  6201.324   53724.5089    0.1
  6201.342   53708.2488    0.1
  6201.359   53967.6218    0.1
  6201.377   54060.5148    0.1
  6201.394   54432.8771    0.1
  6201.411   54683.6032    0.1
  6201.429   54934.4211    0.1
  6201.446   55325.4694    0.1
  6201.464   55687.3280    0.1
  6201.481   56120.5375    0.1
  6201.498   56441.4823    0.1
  6201.516   56716.2461    0.1
  6201.533   56978.8522    0.1
  6201.551   57195.1256    0.1
  6201.568   57405.6562    0.1
  6201.586   57550.0153    0.1
  6201.603   57628.1603    0.1
  6201.620   57684.1839    0.1
  6201.638   57815.3451    0.1
  6201.655   57695.7657    0.1
  6201.673   57614.3191    0.1
  6201.690   57484.7629    0.1
  6201.707   57539.6075    0.1
  6201.725   57388.3281    0.1
  6201.742   57275.2753    0.1
  6201.760   57238.9236    0.1
  6201.777   57068.5387    0.1
  6201.794   56855.0194    0.1
  6201.812   56716.2304    0.1
  6201.829   56495.4423    0.1
  6201.847   56221.4678    0.1
  6201.864   56030.8293    0.1
  6201.882   55747.5968    0.1
  6201.899   55283.1598    0.1
  6201.916   55107.7462    0.1
  6201.934   54798.4363    0.1
  6201.951   54443.8816    0.1
  6201.969   54021.2286    0.1
  6201.986   53570.4453    0.1
  6202.003   53138.5540    0.1
  6202.021   52667.0471    0.1
  6202.038   52289.1443    0.1
  6202.056   52014.8788    0.1
  6202.073   51772.2743    0.1
  6202.090   51641.4678    0.1
  6202.108   51537.8671    0.1
  6202.125   51500.9004    0.1
  6202.143   51694.8673    0.1
  6202.160   52002.5379    0.1
  6202.178   52252.7136    0.1
  6202.195   52743.9711    0.1
  6202.212   53338.4316    0.1
  6202.230   53973.8446    0.1
  6202.247   54790.7340    0.1
  6202.265   55516.4802    0.1
  6202.282   56430.4336    0.1
  6202.299   57340.9568    0.1
  6202.317   58060.4373    0.1
  6202.334   58784.5869    0.1
  6202.352   59642.7970    0.1
  6202.369   60487.2130    0.1
  6202.386   61215.7804    0.1
  6202.404   61657.8594    0.1
  6202.421   62200.1189    0.1
  6202.439   62571.3325    0.1
  6202.456   62811.9783    0.1
  6202.474   62927.4815    0.1
  6202.491   62837.9851    0.1
  6202.508   62598.2710    0.1
  6202.526   62156.5066    0.1
  6202.543   61610.0690    0.1
  6202.561   60927.7021    0.1
  6202.578   60300.4292    0.1
  6202.595   59529.3032    0.1
  6202.613   58751.2249    0.1
  6202.630   58035.3349    0.1
  6202.648   57330.0683    0.1
  6202.665   56736.2062    0.1
  6202.682   56231.3419    0.1
  6202.700   55807.5710    0.1
  6202.717   55525.3896    0.1
  6202.735   55278.3920    0.1
  6202.752   55130.7633    0.1
  6202.770   55185.1126    0.1
  6202.787   55436.0321    0.1
  6202.804   55634.3305    0.1
  6202.822   55763.4082    0.1
  6202.839   56117.9047    0.1
  6202.857   56636.4476    0.1
  6202.874   57143.4899    0.1
  6202.891   57437.4065    0.1
  6202.909   57899.3517    0.1
  6202.926   58305.6869    0.1
  6202.944   58662.9255    0.1
  6202.961   59067.2793    0.1
  6202.978   59589.6181    0.1
  6202.996   59827.7024    0.1
  6203.013   60039.1056    0.1
  6203.031   60182.0573    0.1
  6203.048   60493.9705    0.1
  6203.066   60692.9419    0.1
  6203.083   60995.6289    0.1
  6203.100   61130.2923    0.1
  6203.118   61193.1554    0.1
  6203.135   61399.8929    0.1
  6203.153   61508.7974    0.1
  6203.170   61587.0273    0.1
  6203.187   61726.2570    0.1
  6203.205   61754.4674    0.1
  6203.222   61772.3071    0.1
  6203.240   61702.2724    0.1
  6203.257   61455.9278    0.1
  6203.274   61244.6097    0.1
  6203.292   60929.1603    0.1
  6203.309   60561.2701    0.1
  6203.327   60087.5590    0.1
  6203.344   59575.8933    0.1
  6203.361   59038.0594    0.1
  6203.379   58388.7122    0.1
  6203.396   57904.9007    0.1
  6203.414   57319.7764    0.1
  6203.431   56926.9231    0.1
  6203.449   56566.4026    0.1
  6203.466   56218.8349    0.1
  6203.483   56031.2299    0.1
  6203.501   55726.2969    0.1
  6203.518   55373.2637    0.1
  6203.536   55271.8118    0.1
  6203.553   55191.8659    0.1
  6203.570   55378.4669    0.1
  6203.588   55568.2505    0.1
  6203.605   55856.6577    0.1
  6203.623   56067.0537    0.1
  6203.640   56727.7452    0.1
  6203.657   57253.2099    0.1
  6203.675   57724.8819    0.1
  6203.692   58331.3360    0.1
  6203.710   58940.9329    0.1
  6203.727   59778.6906    0.1
  6203.745   60670.1213    0.1
  6203.762   61263.2127    0.1
  6203.779   61993.6057    0.1
  6203.797   62633.0447    0.1
  6203.814   63040.4163    0.1
  6203.832   63530.9755    0.1
  6203.849   63876.9335    0.1
  6203.866   64167.1413    0.1
  6203.884   64321.7906    0.1
  6203.901   64155.9887    0.1
  6203.919   64204.1366    0.1
  6203.936   63903.3549    0.1
  6203.953   63665.3590    0.1
  6203.971   63465.5671    0.1
  6203.988   63269.9576    0.1
  6204.006   63010.4913    0.1
  6204.023   62779.2553    0.1
  6204.041   62645.4150    0.1
  6204.058   62530.6872    0.1
  6204.075   62355.0149    0.1
  6204.093   62045.5728    0.1
  6204.110   61721.7611    0.1
  6204.128   61550.2465    0.1
  6204.145   61208.5623    0.1
  6204.162   60849.4638    0.1
  6204.180   60527.8931    0.1
  6204.197   60107.5695    0.1
  6204.215   59715.9161    0.1
  6204.232   59305.9370    0.1
  6204.249   58856.3717    0.1
  6204.267   58449.0226    0.1
  6204.284   58125.3378    0.1
  6204.302   58003.7967    0.1
  6204.319   57761.5298    0.1
  6204.337   57652.5984    0.1
  6204.354   57773.2856    0.1
  6204.371   57957.2924    0.1
  6204.389   58044.2357    0.1
  6204.406   58155.2366    0.1
  6204.424   58384.3398    0.1
  6204.441   58652.3600    0.1
  6204.458   58994.2619    0.1
  6204.476   59377.9608    0.1
  6204.493   59736.0006    0.1
  6204.511   60280.1943    0.1
  6204.528   60753.2441    0.1
  6204.545   61178.4676    0.1
  6204.563   61671.9641    0.1
  6204.580   62160.8628    0.1
  6204.598   62693.1765    0.1
  6204.615   63151.5827    0.1
  6204.633   63393.3011    0.1
  6204.650   63623.3809    0.1
  6204.667   63682.8849    0.1
  6204.685   63738.4236    0.1
  6204.702   63596.0871    0.1
  6204.720   63367.1793    0.1
  6204.737   62935.1435    0.1
  6204.754   62426.4404    0.1
  6204.772   61942.0712    0.1
  6204.789   61366.9972    0.1
  6204.807   60825.1040    0.1
  6204.824   60103.2943    0.1
  6204.841   59377.7601    0.1
  6204.859   58956.2495    0.1
  6204.876   58241.2604    0.1
  6204.894   57542.8084    0.1
  6204.911   56972.9905    0.1
  6204.929   56300.1765    0.1
  6204.946   55787.2954    0.1
  6204.963   55214.9734    0.1
  6204.981   54756.5199    0.1
  6204.998   54496.8243    0.1
  6205.016   54129.0466    0.1
  6205.033   53888.5064    0.1
  6205.050   53668.8418    0.1
  6205.068   53601.0338    0.1
  6205.085   53596.8820    0.1
  6205.103   53665.6887    0.1
  6205.120   53788.3132    0.1
  6205.137   53973.1383    0.1
  6205.155   54371.7319    0.1
  6205.172   54731.4498    0.1
  6205.190   55070.3075    0.1
  6205.207   55402.2864    0.1
  6205.224   55813.6473    0.1
  6205.242   55963.3669    0.1
  6205.259   56180.2005    0.1
  6205.277   56268.8458    0.1
  6205.294   56258.4875    0.1
  6205.312   56172.4988    0.1
  6205.329   56026.0408    0.1
  6205.346   55870.2482    0.1
  6205.364   55734.6808    0.1
  6205.381   55465.2533    0.1
  6205.399   55356.8564    0.1
  6205.416   55260.3671    0.1
  6205.433   55030.3080    0.1
  6205.451   54753.2013    0.1
  6205.468   54589.7990    0.1
  6205.486   54432.8700    0.1
  6205.503   54263.8339    0.1
  6205.520   54051.2324    0.1
  6205.538   53840.7009    0.1
  6205.555   53633.2063    0.1
  6205.573   53449.6841    0.1
  6205.590   53384.8548    0.1
  6205.608   53383.2963    0.1
  6205.625   53586.7140    0.1
  6205.642   53571.0415    0.1
  6205.660   53783.4790    0.1
  6205.677   54086.3141    0.1
  6205.695   54382.2339    0.1
  6205.712   54898.9798    0.1
  6205.729   55128.7948    0.1
  6205.747   55560.9999    0.1
  6205.764   55952.5265    0.1
  6205.782   56242.0679    0.1
  6205.799   56676.3236    0.1
  6205.816   56909.2321    0.1
  6205.834   57225.3278    0.1
  6205.851   57560.3197    0.1
  6205.869   57749.6902    0.1
  6205.886   57876.5972    0.1
  6205.904   57988.4554    0.1
  6205.921   58175.1939    0.1
  6205.938   58311.6987    0.1
  6205.956   58476.2955    0.1
  6205.973   58649.9665    0.1
  6205.991   58891.5341    0.1
  6206.008   59060.1941    0.1
  6206.025   59178.6825    0.1
  6206.043   59292.8339    0.1
  6206.060   59373.1036    0.1
  6206.078   59360.2492    0.1
  6206.095   59420.1399    0.1
  6206.112   59545.8609    0.1
  6206.130   59691.7559    0.1
  6206.147   59739.1164    0.1
  6206.165   59846.1054    0.1
  6206.182   59877.7528    0.1
  6206.200   60042.0355    0.1
  6206.217   60114.9950    0.1
  6206.234   60126.4756    0.1
  6206.252   60234.8949    0.1
  6206.269   60326.9387    0.1
  6206.287   60465.7549    0.1
  6206.304   60585.8031    0.1
  6206.321   60735.5592    0.1
  6206.339   60880.3897    0.1
  6206.356   61164.7336    0.1
  6206.374   61418.4735    0.1
  6206.391   61681.8293    0.1
  6206.408   61862.4642    0.1
  6206.426   61934.7039    0.1
  6206.443   62098.4640    0.1
  6206.461   62284.5388    0.1
  6206.478   62338.4723    0.1
  6206.496   62309.8403    0.1
  6206.513   62194.6991    0.1
  6206.530   61975.8604    0.1
  6206.548   61719.3252    0.1
  6206.565   61381.5315    0.1
  6206.583   61010.2093    0.1
  6206.600   60624.7204    0.1
  6206.617   59927.4525    0.1
  6206.635   59323.7287    0.1
  6206.652   59042.9098    0.1
  6206.670   58480.0912    0.1
  6206.687   57942.3775    0.1
  6206.704   57557.1724    0.1
  6206.722   57035.6240    0.1
  6206.739   57031.1499    0.1
  6206.757   56948.6594    0.1
  6206.774   56962.8888    0.1
  6206.792   56988.2667    0.1
  6206.809   57165.0396    0.1
  6206.826   57384.0513    0.1
  6206.844   57545.9459    0.1
  6206.861   57927.8760    0.1
  6206.879   58186.9235    0.1
  6206.896   58637.3272    0.1
  6206.913   58954.5298    0.1
  6206.931   59175.4343    0.1
  6206.948   59347.2491    0.1
  6206.966   59412.6393    0.1
  6206.983   59605.4900    0.1
  6207.000   59615.8738    0.1
  6207.018   59635.8640    0.1
  6207.035   59663.7559    0.1
  6207.053   59501.4853    0.1
  6207.070   59476.9366    0.1
  6207.088   59181.6524    0.1
  6207.105   59127.6747    0.1
  6207.122   59091.5805    0.1
  6207.140   58867.9174    0.1
  6207.157   58670.9495    0.1
  6207.175   58432.4508    0.1
  6207.192   58246.8739    0.1
  6207.209   58181.0542    0.1
  6207.227   58109.0679    0.1
  6207.244   58027.2126    0.1
  6207.262   58075.1258    0.1
  6207.279   58167.0048    0.1
  6207.296   58255.0929    0.1
  6207.314   58559.7112    0.1
  6207.331   58927.9401    0.1
  6207.349   59191.3795    0.1
  6207.366   59438.8416    0.1
  6207.383   59628.7309    0.1
  6207.401   59846.6653    0.1
  6207.418   60070.3966    0.1
  6207.436   60259.1567    0.1
  6207.453   60232.9976    0.1
  6207.471   60011.4303    0.1
  6207.488   59956.7946    0.1
  6207.505   59449.0890    0.1
  6207.523   58928.0233    0.1
  6207.540   58483.6586    0.1
  6207.558   57890.5753    0.1
  6207.575   57334.0129    0.1
  6207.592   56775.8490    0.1
  6207.610   56360.6470    0.1
  6207.627   56145.2216    0.1
  6207.645   55796.9295    0.1
  6207.662   55530.2037    0.1
  6207.679   55456.6588    0.1
  6207.697   55432.2495    0.1
  6207.714   55472.6408    0.1
  6207.732   55661.4452    0.1
  6207.749   55972.4698    0.1
  6207.767   56284.3315    0.1
  6207.784   56771.1187    0.1
  6207.801   57186.2775    0.1
  6207.819   57634.3667    0.1
  6207.836   58195.5559    0.1
  6207.854   58591.4489    0.1
  6207.871   58977.8170    0.1
  6207.888   59351.9784    0.1
  6207.906   59787.7217    0.1
  6207.923   60328.7411    0.1
  6207.941   60676.4497    0.1
  6207.958   60913.7278    0.1
  6207.975   61175.0452    0.1
  6207.993   61372.8843    0.1
  6208.010   61435.7098    0.1
  6208.028   61522.4565    0.1
  6208.045   61623.7546    0.1
  6208.063   61553.8365    0.1
  6208.080   61371.6663    0.1
  6208.097   61082.0462    0.1
  6208.115   60696.7131    0.1
  6208.132   60477.9821    0.1
  6208.150   59976.5557    0.1
  6208.167   59643.0032    0.1
  6208.184   59405.5834    0.1
  6208.202   59054.7015    0.1
  6208.219   58811.0001    0.1
  6208.237   58768.6542    0.1
  6208.254   58849.9583    0.1
  6208.271   58940.7086    0.1
  6208.289   59131.7134    0.1
  6208.306   59306.5857    0.1
  6208.324   59424.5077    0.1
  6208.341   59491.6279    0.1
  6208.359   59602.7588    0.1
  6208.376   59727.2744    0.1
  6208.393   59772.7217    0.1
  6208.411   59834.5280    0.1
  6208.428   59891.9991    0.1
  6208.446   59867.9807    0.1
  6208.463   59876.6231    0.1
  6208.480   59910.0694    0.1
  6208.498   60097.2166    0.1
  6208.515   60380.9393    0.1
  6208.533   60729.8542    0.1
  6208.550   60981.0520    0.1
  6208.567   61262.7465    0.1
  6208.585   61546.1373    0.1
  6208.602   61710.2862    0.1
  6208.620   62037.9990    0.1
  6208.637   62290.2451    0.1
  6208.655   62221.5537    0.1
  6208.672   62317.1669    0.1
  6208.689   62275.2313    0.1
  6208.707   62132.1091    0.1
  6208.724   61929.0381    0.1
  6208.742   61792.7345    0.1
  6208.759   61641.3677    0.1
  6208.776   61505.9272    0.1
  6208.794   61295.6430    0.1
  6208.811   61137.8864    0.1
  6208.829   61027.9326    0.1
  6208.846   60958.0887    0.1
  6208.863   60896.8084    0.1
  6208.881   60816.7042    0.1
  6208.898   60807.9208    0.1
  6208.916   60816.8123    0.1
  6208.933   60897.0303    0.1
  6208.951   60811.9336    0.1
  6208.968   60774.7196    0.1
  6208.985   60583.0432    0.1
  6209.003   60452.4016    0.1
  6209.020   60424.8948    0.1
  6209.038   60435.9046    0.1
  6209.055   60457.8573    0.1
  6209.072   60364.9225    0.1
  6209.090   60214.3605    0.1
  6209.107   60134.8144    0.1
  6209.125   60077.0293    0.1
  6209.142   60019.6656    0.1
  6209.159   59873.9948    0.1
  6209.177   59585.6195    0.1
  6209.194   59525.2218    0.1
  6209.212   59425.5562    0.1
  6209.229   59174.1803    0.1
  6209.246   58946.1121    0.1
  6209.264   58878.4572    0.1
  6209.281   58769.9982    0.1
  6209.299   58666.5914    0.1
  6209.316   58710.1114    0.1
  6209.334   58509.4200    0.1
  6209.351   58487.1593    0.1
  6209.368   58494.6699    0.1
  6209.386   58536.7189    0.1
  6209.403   58681.2561    0.1
  6209.421   58811.7268    0.1
  6209.438   59032.3598    0.1
  6209.455   59396.6922    0.1
  6209.473   59756.5808    0.1
  6209.490   59827.3687    0.1
  6209.508   60004.9718    0.1
  6209.525   60238.0030    0.1
  6209.542   60344.7202    0.1
  6209.560   60271.1335    0.1
  6209.577   60110.3700    0.1
  6209.595   59913.4433    0.1
  6209.612   59744.0535    0.1
  6209.630   59472.7696    0.1
  6209.647   59247.3895    0.1
  6209.664   59035.1916    0.1
  6209.682   58919.5667    0.1
  6209.699   59008.2489    0.1
  6209.717   59161.2385    0.1
  6209.734   59293.7620    0.1
  6209.751   59507.9210    0.1
  6209.769   59793.0349    0.1
  6209.786   60259.2826    0.1
  6209.804   60842.3486    0.1
  6209.821   61322.3515    0.1
  6209.838   61921.1717    0.1
  6209.856   62397.9529    0.1
  6209.873   62655.8067    0.1
  6209.891   63076.1949    0.1
  6209.908   63442.4481    0.1
  6209.926   63714.4010    0.1
  6209.943   63687.9299    0.1
  6209.960   63512.5560    0.1
  6209.978   63380.4022    0.1
  6209.995   63224.2372    0.1
  6210.013   62916.8388    0.1
  6210.030   62470.4348    0.1
  6210.047   61942.8994    0.1
  6210.065   61364.2580    0.1
  6210.082   60709.3956    0.1
  6210.100   60181.5431    0.1
  6210.117   59497.5480    0.1
  6210.134   58910.9500    0.1
  6210.152   58506.9205    0.1
  6210.169   57900.8762    0.1
  6210.187   57382.6022    0.1
  6210.204   57051.8426    0.1
  6210.222   56756.7774    0.1
  6210.239   56583.5591    0.1
  6210.256   56418.0720    0.1
  6210.274   56291.7354    0.1
  6210.291   56394.7729    0.1
  6210.309   56493.6614    0.1
  6210.326   56680.8589    0.1
  6210.343   56858.8031    0.1
  6210.361   57218.3709    0.1
  6210.378   57582.2672    0.1
  6210.396   58019.8039    0.1
  6210.413   58444.8861    0.1
  6210.430   58813.6520    0.1
  6210.448   59390.3626    0.1
  6210.465   59993.4541    0.1
  6210.483   60292.8405    0.1
  6210.500   60973.7342    0.1
  6210.518   61556.1259    0.1
  6210.535   61992.8301    0.1
  6210.552   62557.2193    0.1
  6210.570   63063.5210    0.1
  6210.587   63473.2849    0.1
  6210.605   63675.8942    0.1
  6210.622   63787.8779    0.1
  6210.639   63807.5821    0.1
  6210.657   63723.5308    0.1
  6210.674   63530.8657    0.1
  6210.692   63111.6152    0.1
  6210.709   62770.2822    0.1
  6210.726   62091.9037    0.1
  6210.744   61184.2016    0.1
  6210.761   60277.0022    0.1
  6210.779   59168.1438    0.1
  6210.796   57833.6043    0.1
  6210.814   56737.9789    0.1
  6210.831   54902.9312    0.1
  6210.848   53246.1491    0.1
  6210.866   52019.7216    0.1
  6210.883   50202.5844    0.1
  6210.901   48765.1057    0.1
  6210.918   47095.9244    0.1
  6210.935   45482.8332    0.1
  6210.953   44462.4490    0.1
  6210.970   43268.1368    0.1
  6210.988   42460.3116    0.1
  6211.005   41892.6702    0.1
  6211.022   41404.2555    0.1
  6211.040   41110.9822    0.1
  6211.057   40956.8333    0.1
  6211.075   40714.4157    0.1
  6211.092   40843.2430    0.1
  6211.109   40948.7765    0.1
  6211.127   41332.7023    0.1
  6211.144   41620.6341    0.1
  6211.162   42154.7084    0.1
  6211.179   42836.3347    0.1
  6211.197   43365.4927    0.1
  6211.214   44142.3255    0.1
  6211.231   44875.2662    0.1
  6211.249   45806.4621    0.1
  6211.266   46944.3185    0.1
  6211.284   47755.4855    0.1
  6211.301   48988.5240    0.1
  6211.318   50318.4668    0.1
  6211.336   51348.3455    0.1
  6211.353   52915.2130    0.1
  6211.371   54343.0050    0.1
  6211.388   55365.1911    0.1
  6211.405   56556.2047    0.1
  6211.423   57567.2473    0.1
  6211.440   58894.5356    0.1
  6211.458   60056.3403    0.1
  6211.475   60666.4091    0.1
  6211.493   61534.1233    0.1
  6211.510   62194.0351    0.1
  6211.527   62581.7885    0.1
  6211.545   62992.0641    0.1
  6211.562   63180.4440    0.1
  6211.580   63511.2396    0.1
  6211.597   63484.3602    0.1
  6211.614   63284.4809    0.1
  6211.632   63276.9157    0.1
  6211.649   63049.8391    0.1
  6211.667   62555.4262    0.1
  6211.684   62551.3601    0.1
  6211.701   62241.7846    0.1
  6211.719   61853.8127    0.1
  6211.736   61437.7455    0.1
  6211.754   61043.3940    0.1
  6211.771   60848.9514    0.1
  6211.789   60366.9135    0.1
  6211.806   60032.1361    0.1
  6211.823   59567.6130    0.1
  6211.841   58926.6571    0.1
  6211.858   58575.3718    0.1
  6211.876   58232.5519    0.1
  6211.893   57768.3031    0.1
  6211.910   57519.3393    0.1
  6211.928   57228.0777    0.1
  6211.945   57035.3500    0.1
  6211.963   56667.4424    0.1
  6211.980   56368.2033    0.1
  6211.997   56192.2120    0.1
  6212.015   56170.5805    0.1
  6212.032   56187.8930    0.1
  6212.050   56138.7184    0.1
  6212.067   56231.3129    0.1
  6212.085   56393.3808    0.1
  6212.102   56439.6348    0.1
  6212.119   56072.3894    0.1
  6212.137   56112.8711    0.1
  6212.154   56167.6929    0.1
  6212.172   56175.7538    0.1
  6212.189   56114.3444    0.1
  6212.206   56153.2760    0.1
  6212.224   56068.2141    0.1
  6212.241   55884.1496    0.1
  6212.259   55885.7731    0.1
  6212.276   55932.1195    0.1
  6212.293   55995.0224    0.1
  6212.311   56076.8863    0.1
  6212.328   56223.6536    0.1
  6212.346   56308.2044    0.1
  6212.363   56482.3461    0.1
  6212.381   56606.7716    0.1
  6212.398   56687.3448    0.1
  6212.415   56927.4943    0.1
  6212.433   57096.4524    0.1
  6212.450   57322.4988    0.1
  6212.468   57310.0374    0.1
  6212.485   57495.5540    0.1
  6212.502   57546.2852    0.1
  6212.520   57492.7767    0.1
  6212.537   57660.0222    0.1
  6212.555   57735.2483    0.1
  6212.572   57735.0134    0.1
  6212.589   57772.0675    0.1
  6212.607   58057.9106    0.1
  6212.624   58394.9594    0.1
  6212.642   58723.0369    0.1
  6212.659   58947.8074    0.1
  6212.677   59360.4868    0.1
  6212.694   59839.4756    0.1
  6212.711   60164.8919    0.1
  6212.729   60627.4329    0.1
  6212.746   61110.1107    0.1
  6212.764   61382.2674    0.1
  6212.781   61673.1027    0.1
  6212.798   62008.3480    0.1
  6212.816   62436.6794    0.1
  6212.833   62661.6380    0.1
  6212.851   62711.8224    0.1
  6212.868   62733.4295    0.1
  6212.885   62874.4340    0.1
  6212.903   62870.4630    0.1
  6212.920   62724.3175    0.1
  6212.938   62637.5469    0.1
  6212.955   62640.3701    0.1
  6212.973   62344.1202    0.1
  6212.990   61785.6008    0.1
  6213.007   62160.4538    0.1
  6213.025   61894.9619    0.1
  6213.042   61542.2898    0.1
  6213.060   61049.1320    0.1
  6213.077   60536.4744    0.1
  6213.094   59937.6256    0.1
  6213.112   59295.6955    0.1
  6213.129   58742.3138    0.1
  6213.147   58184.1612    0.1
  6213.164   57665.0524    0.1
  6213.181   57050.2446    0.1
  6213.199   56664.2910    0.1
  6213.216   56160.6834    0.1
  6213.234   55627.1768    0.1
  6213.251   55235.7166    0.1
  6213.268   54916.9893    0.1
  6213.286   53956.2148    0.1
  6213.303   53751.6537    0.1
  6213.321   53094.3893    0.1
  6213.338   52519.2161    0.1
  6213.356   51900.4758    0.1
  6213.373   51289.5139    0.1
  6213.390   50744.2081    0.1
  6213.408   50112.5949    0.1
  6213.425   49708.8706    0.1
  6213.443   49443.1762    0.1
  6213.460   49042.8458    0.1
  6213.477   48588.8262    0.1
  6213.495   48321.1732    0.1
  6213.512   47975.8500    0.1
  6213.530   47842.8893    0.1
  6213.547   47417.0104    0.1
  6213.564   47042.4085    0.1
  6213.582   46818.1957    0.1
  6213.599   46193.4973    0.1
  6213.617   45656.7073    0.1
  6213.634   45496.0318    0.1
  6213.652   44760.9832    0.1
  6213.669   43992.9128    0.1
  6213.686   43458.5120    0.1
  6213.704   42773.2947    0.1
  6213.721   42150.2948    0.1
  6213.739   41580.3004    0.1
  6213.756   40969.5583    0.1
  6213.773   40588.4470    0.1
  6213.791   40154.0458    0.1
  6213.808   39928.5761    0.1
  6213.826   40007.2564    0.1
  6213.843   39665.8312    0.1
  6213.860   39659.0664    0.1
  6213.878   39668.5015    0.1
  6213.895   39837.1351    0.1
  6213.913   40046.7941    0.1
  6213.930   40233.6479    0.1
  6213.948   40531.7714    0.1
  6213.965   40796.9022    0.1
  6213.982   40897.3282    0.1
  6214.000   41101.9055    0.1
  6214.017   41280.7996    0.1
  6214.035   41380.4737    0.1
  6214.052   41403.1982    0.1
  6214.069   41631.0175    0.1
  6214.087   41336.0913    0.1
  6214.104   41090.4639    0.1
  6214.122   40970.2025    0.1
  6214.139   40831.8798    0.1
  6214.156   40665.9354    0.1
  6214.174   40561.5969    0.1
  6214.191   40576.6624    0.1
  6214.209   40532.9448    0.1
  6214.226   40612.2555    0.1
  6214.244   40709.2850    0.1
  6214.261   40798.0533    0.1
  6214.278   40968.2693    0.1
  6214.296   41271.8662    0.1
  6214.313   41562.1918    0.1
  6214.331   42037.5013    0.1
  6214.348   42488.1076    0.1
  6214.365   42998.7357    0.1
  6214.383   43679.4145    0.1
  6214.400   44210.8157    0.1
  6214.418   44885.3617    0.1
  6214.435   45659.9228    0.1
  6214.452   46273.3040    0.1
  6214.470   47085.5580    0.1
  6214.487   47955.2655    0.1
  6214.505   48594.6874    0.1
  6214.522   49752.8054    0.1
  6214.540   50679.4378    0.1
  6214.557   51320.4354    0.1
  6214.574   52224.0940    0.1
  6214.592   52995.6318    0.1
  6214.609   53806.5720    0.1
  6214.627   54706.7368    0.1
  6214.644   55267.4266    0.1
  6214.661   55884.7177    0.1
  6214.679   56627.4384    0.1
  6214.696   57174.8025    0.1
  6214.714   57423.2851    0.1
  6214.731   57694.3957    0.1
  6214.748   57788.3956    0.1
  6214.766   57937.1817    0.1
  6214.783   57915.4221    0.1
  6214.801   57752.6639    0.1
  6214.818   57404.3578    0.1
  6214.836   57227.2367    0.1
  6214.853   56856.2448    0.1
  6214.870   56557.5214    0.1
  6214.888   56281.0279    0.1
  6214.905   56017.9105    0.1
  6214.923   55680.0281    0.1
  6214.940   55538.3784    0.1
  6214.957   55189.5444    0.1
  6214.975   54825.1236    0.1
  6214.992   54599.0905    0.1
  6215.010   54430.3410    0.1
  6215.027   54059.9425    0.1
  6215.044   53664.9672    0.1
  6215.062   53324.5704    0.1
  6215.079   53005.9515    0.1
  6215.097   52567.0075    0.1
  6215.114   52221.7401    0.1
  6215.131   51969.3765    0.1
  6215.149   51496.4195    0.1
  6215.166   50942.8052    0.1
  6215.184   50549.6757    0.1
  6215.201   49884.9992    0.1
  6215.219   48987.6287    0.1
  6215.236   48548.1090    0.1
  6215.253   48021.2104    0.1
  6215.271   47613.1047    0.1
  6215.288   47021.2790    0.1
  6215.306   46315.9764    0.1
  6215.323   45833.2371    0.1
  6215.340   45238.6716    0.1
  6215.358   44589.2136    0.1
  6215.375   44097.5357    0.1
  6215.393   43581.4038    0.1
  6215.410   43031.5064    0.1
  6215.427   42858.1158    0.1
  6215.445   42343.7933    0.1
  6215.462   41965.1189    0.1
  6215.480   41791.3921    0.1
  6215.497   41501.8916    0.1
  6215.515   41291.1420    0.1
  6215.532   41242.0932    0.1
  6215.549   41118.2532    0.1
  6215.567   41125.8839    0.1
  6215.584   41076.8411    0.1
  6215.602   41098.8247    0.1
  6215.619   41117.2642    0.1
  6215.636   41356.5856    0.1
  6215.654   41636.0653    0.1
  6215.671   41833.7190    0.1
  6215.689   42184.6453    0.1
  6215.706   42712.5834    0.1
  6215.723   43118.2519    0.1
  6215.741   43575.9584    0.1
  6215.758   44029.3556    0.1
  6215.776   44460.7066    0.1
  6215.793   45260.3643    0.1
  6215.811   45686.2373    0.1
  6215.828   46065.1262    0.1
  6215.845   46573.6676    0.1
  6215.863   47013.0306    0.1
  6215.880   47473.8996    0.1
  6215.898   47959.2828    0.1
  6215.915   48258.0591    0.1
  6215.932   48600.1647    0.1
  6215.950   48814.5840    0.1
  6215.967   49015.0074    0.1
  6215.985   49149.2670    0.1
  6216.002   49143.0435    0.1
  6216.019   49287.2991    0.1
  6216.037   49275.9690    0.1
  6216.054   49207.9858    0.1
  6216.072   49146.1153    0.1
  6216.089   49138.0826    0.1
  6216.107   49098.9035    0.1
  6216.124   49139.0930    0.1
  6216.141   49044.2946    0.1
  6216.159   48945.5623    0.1
  6216.176   48855.9780    0.1
  6216.194   48730.2871    0.1
  6216.211   48644.4206    0.1
  6216.228   48612.4368    0.1
  6216.246   48549.6189    0.1
  6216.263   48491.2244    0.1
  6216.281   48451.4647    0.1
  6216.298   48324.8012    0.1
  6216.315   48104.3612    0.1
  6216.333   47916.6010    0.1
  6216.350   47825.0376    0.1
  6216.368   47647.1605    0.1
  6216.385   47421.1422    0.1
  6216.403   47303.1158    0.1
  6216.420   46899.5201    0.1
  6216.437   46360.9434    0.1
  6216.455   45985.6368    0.1
  6216.472   45289.5006    0.1
  6216.490   44542.1367    0.1
  6216.507   43918.8361    0.1
  6216.524   43088.0972    0.1
  6216.542   42326.2416    0.1
  6216.559   41607.1595    0.1
  6216.577   40669.8924    0.1
  6216.594   39964.8123    0.1
  6216.611   39165.5020    0.1
  6216.629   38417.2923    0.1
  6216.646   38051.7549    0.1
  6216.664   37590.2294    0.1
  6216.681   37143.6665    0.1
  6216.699   36864.0014    0.1
  6216.716   36644.7828    0.1
  6216.733   36554.8729    0.1
  6216.751   36540.4287    0.1
  6216.768   36602.2474    0.1
  6216.786   36730.8228    0.1
  6216.803   36947.0394    0.1
  6216.820   37130.7312    0.1
  6216.838   37365.0986    0.1
  6216.855   37759.1722    0.1
  6216.873   38311.3679    0.1
  6216.890   38714.2041    0.1
  6216.907   39333.1244    0.1
  6216.925   40201.5367    0.1
  6216.942   40934.3464    0.1
  6216.960   41801.5424    0.1
  6216.977   42770.5755    0.1
  6216.995   43534.6363    0.1
  6217.012   44494.5207    0.1
  6217.029   45466.5972    0.1
  6217.047   46025.1825    0.1
  6217.064   46869.5996    0.1
  6217.082   47643.0225    0.1
  6217.099   48289.4233    0.1
  6217.116   48899.4284    0.1
  6217.134   49248.7556    0.1
  6217.151   49572.9373    0.1
  6217.169   50036.2858    0.1
  6217.186   50407.1507    0.1
  6217.203   50788.8368    0.1
  6217.221   51267.2057    0.1
  6217.238   51404.8973    0.1
  6217.256   51785.9555    0.1
  6217.273   52011.2137    0.1
  6217.290   52051.5690    0.1
  6217.308   52201.6177    0.1
  6217.325   52507.1442    0.1
  6217.343   52653.8296    0.1
  6217.360   52891.8226    0.1
  6217.378   53103.5464    0.1
  6217.395   53295.9922    0.1
  6217.412   53544.8267    0.1
  6217.430   53637.1890    0.1
  6217.447   53810.3329    0.1
  6217.465   54215.6527    0.1
  6217.482   54697.7803    0.1
  6217.499   54989.2240    0.1
  6217.517   55479.8306    0.1
  6217.534   55939.3641    0.1
  6217.552   56208.6834    0.1
  6217.569   56573.0113    0.1
  6217.586   56977.9796    0.1
  6217.604   57259.1211    0.1
  6217.621   57473.5809    0.1
  6217.639   57474.6185    0.1
  6217.656   57451.1804    0.1
  6217.674   57267.9645    0.1
  6217.691   57142.2923    0.1
  6217.708   56872.0996    0.1
  6217.726   56671.9747    0.1
  6217.743   56564.7394    0.1
  6217.761   56236.3624    0.1
  6217.778   55929.4076    0.1
  6217.795   55691.4495    0.1
  6217.813   55384.5726    0.1
  6217.830   55100.0725    0.1
  6217.848   54894.5564    0.1
  6217.865   55077.8031    0.1
  6217.882   54720.4348    0.1
  6217.900   54706.7043    0.1
  6217.917   54720.1693    0.1
  6217.935   54751.7623    0.1
  6217.952   54843.6334    0.1
  6217.970   54806.9810    0.1
  6217.987   54488.9863    0.1
  6218.004   54385.3824    0.1
  6218.022   54257.8075    0.1
  6218.039   54227.1888    0.1
  6218.057   54029.7455    0.1
  6218.074   53851.8102    0.1
  6218.091   53680.2984    0.1
  6218.109   53378.4791    0.1
  6218.126   53188.5476    0.1
  6218.144   52963.7107    0.1
  6218.161   52803.0318    0.1
  6218.178   52694.7367    0.1
  6218.196   52487.9455    0.1
  6218.213   52323.8640    0.1
  6218.231   52444.0419    0.1
  6218.248   52560.9359    0.1
  6218.266   52564.0486    0.1
  6218.283   52524.4139    0.1
  6218.300   52485.9851    0.1
  6218.318   52429.4761    0.1
  6218.335   52423.6361    0.1
  6218.353   52421.9951    0.1
  6218.370   52376.2788    0.1
  6218.387   52357.2411    0.1
  6218.405   52151.8603    0.1
  6218.422   51937.3011    0.1
  6218.440   51852.9588    0.1
  6218.457   51749.5300    0.1
  6218.474   51623.3675    0.1
  6218.492   51817.1995    0.1
  6218.509   51649.9179    0.1
  6218.527   51618.6971    0.1
  6218.544   51595.3806    0.1
  6218.562   51714.5163    0.1
  6218.579   51833.9708    0.1
  6218.596   52050.8580    0.1
  6218.614   52272.7823    0.1
  6218.631   52372.9901    0.1
  6218.649   52440.6271    0.1
  6218.666   52832.0931    0.1
  6218.683   52917.2059    0.1
  6218.701   53100.4528    0.1
  6218.718   53263.4099    0.1
  6218.736   53363.3825    0.1
  6218.753   53622.5732    0.1
  6218.770   53904.3435    0.1
  6218.788   54133.6384    0.1
  6218.805   54401.2151    0.1
  6218.823   54681.7210    0.1
  6218.840   55091.2290    0.1
  6218.858   55438.6461    0.1
  6218.875   55490.0010    0.1
  6218.892   55639.7354    0.1
  6218.910   55933.5142    0.1
  6218.927   56115.5538    0.1
  6218.945   56182.4043    0.1
  6218.962   56417.9876    0.1
  6218.979   56616.8445    0.1
  6218.997   56871.6153    0.1
  6219.014   56863.9310    0.1
  6219.032   56994.8136    0.1
  6219.049   57333.0452    0.1
  6219.066   57449.8974    0.1
  6219.084   57310.4329    0.1
  6219.101   57495.8159    0.1
  6219.119   57605.6102    0.1
  6219.136   57610.3141    0.1
  6219.153   57631.0353    0.1
  6219.171   57626.8097    0.1
  6219.188   57535.6944    0.1
  6219.206   57189.9968    0.1
  6219.223   56817.8558    0.1
  6219.241   56456.6213    0.1
  6219.258   55863.6271    0.1
  6219.275   55314.2466    0.1
  6219.293   54873.5913    0.1
  6219.310   54034.2568    0.1
  6219.328   53275.2209    0.1
  6219.345   52556.8177    0.1
  6219.362   51606.5220    0.1
  6219.380   50586.5992    0.1
  6219.397   49623.0120    0.1
  6219.415   48434.8688    0.1
  6219.432   47557.3626    0.1
  6219.449   46426.8711    0.1
  6219.467   45287.9645    0.1
  6219.484   44514.2692    0.1
  6219.502   43472.0504    0.1
  6219.519   42416.3096    0.1
  6219.537   41682.7518    0.1
  6219.554   40761.0172    0.1
  6219.571   39891.8224    0.1
  6219.589   39331.1867    0.1
  6219.606   38751.2860    0.1
  6219.624   38278.3059    0.1
  6219.641   38088.7380    0.1
  6219.658   37748.9279    0.1
  6219.676   37511.3419    0.1
  6219.693   37480.3400    0.1
  6219.711   37572.1592    0.1
  6219.728   37709.1243    0.1
  6219.745   37883.5357    0.1
  6219.763   38211.9307    0.1
  6219.780   38460.9088    0.1
  6219.798   38962.9951    0.1
  6219.815   39559.6041    0.1
  6219.833   40073.3989    0.1
  6219.850   40760.2882    0.1
  6219.867   41655.5002    0.1
  6219.885   42340.6139    0.1
  6219.902   43192.0139    0.1
  6219.920   44203.5925    0.1
  6219.937   45082.8047    0.1
  6219.954   45951.4259    0.1
  6219.972   46986.8065    0.1
  6219.989   47780.8922    0.1
  6220.007   48906.3686    0.1
  6220.024   49961.0849    0.1
  6220.041   50703.9094    0.1
  6220.059   51418.3377    0.1
  6220.076   52051.1446    0.1
  6220.094   52551.1174    0.1
  6220.111   53044.0511    0.1
  6220.129   53323.5573    0.1
  6220.146   53419.4170    0.1
  6220.163   53495.6404    0.1
  6220.181   53619.6790    0.1
  6220.198   53467.0543    0.1
  6220.216   53155.2204    0.1
  6220.233   52832.6732    0.1
  6220.250   52517.3616    0.1
  6220.268   52265.5930    0.1
  6220.285   52150.9434    0.1
  6220.303   51924.8824    0.1
  6220.320   51788.2830    0.1
  6220.337   51790.8587    0.1
  6220.355   51977.8606    0.1
  6220.372   52086.5342    0.1
  6220.390   52063.6979    0.1
  6220.407   52256.9123    0.1
  6220.425   52534.1963    0.1
  6220.442   52627.8740    0.1
  6220.459   52993.7488    0.1
  6220.477   53251.2741    0.1
  6220.494   53370.1385    0.1
  6220.512   53632.0904    0.1
  6220.529   53896.6655    0.1
  6220.546   53921.6261    0.1
  6220.564   54063.3156    0.1
  6220.581   54171.6725    0.1
  6220.599   54204.3340    0.1
  6220.616   54094.7063    0.1
  6220.633   53935.5112    0.1
  6220.651   53833.7770    0.1
  6220.668   53608.4005    0.1
  6220.686   53312.8445    0.1
  6220.703   53089.7306    0.1
  6220.721   52772.5320    0.1
  6220.738   52530.7355    0.1
  6220.755   51908.5012    0.1
  6220.773   51623.7695    0.1
  6220.790   51386.9608    0.1
  6220.808   51238.0529    0.1
  6220.825   50967.8653    0.1
  6220.842   50949.9553    0.1
  6220.860   50758.7437    0.1
  6220.877   50975.4549    0.1
  6220.895   51194.4707    0.1
  6220.912   51305.6270    0.1
  6220.929   51476.9706    0.1
  6220.947   51737.5224    0.1
  6220.964   52219.5355    0.1
  6220.982   52571.1598    0.1
  6220.999   52694.0179    0.1
  6221.016   53024.5627    0.1
  6221.034   53351.5146    0.1
  6221.051   53509.7981    0.1
  6221.069   53590.0634    0.1
  6221.086   53511.4918    0.1
  6221.104   53370.5020    0.1
  6221.121   53221.4101    0.1
  6221.138   53074.3749    0.1
  6221.156   52965.7009    0.1
  6221.173   52722.5008    0.1
  6221.191   52556.0698    0.1
  6221.208   52506.9409    0.1
  6221.225   52312.4250    0.1
  6221.243   52222.4652    0.1
  6221.260   51990.0706    0.1
  6221.278   51944.7900    0.1
  6221.295   51833.3041    0.1
  6221.312   51915.9570    0.1
  6221.330   51884.1290    0.1
  6221.347   51820.6995    0.1
  6221.365   51834.0902    0.1
  6221.382   51834.5636    0.1
  6221.400   51799.0557    0.1
  6221.417   51832.9826    0.1
  6221.434   51743.1009    0.1
  6221.452   51706.0927    0.1
  6221.469   51622.4939    0.1
  6221.487   51504.3156    0.1
  6221.504   51234.7581    0.1
  6221.521   51069.3259    0.1
  6221.539   50638.6641    0.1
  6221.556   50355.5206    0.1
  6221.574   49983.3009    0.1
  6221.591   49698.7149    0.1
  6221.608   49401.2688    0.1
  6221.626   49058.4269    0.1
  6221.643   48771.7130    0.1
  6221.661   48628.4602    0.1
  6221.678   48415.3881    0.1
  6221.696   48137.4849    0.1
  6221.713   47969.0996    0.1
  6221.730   48025.6245    0.1
  6221.748   47981.6167    0.1
  6221.765   47973.6506    0.1
  6221.783   47980.3347    0.1
  6221.800   47983.3036    0.1
  6221.817   48008.2769    0.1
  6221.835   48033.9870    0.1
  6221.852   47979.6761    0.1
  6221.870   47869.6553    0.1
  6221.887   47736.5857    0.1
  6221.904   47696.9958    0.1
  6221.922   47575.5248    0.1
  6221.939   47527.3640    0.1
  6221.957   47497.3680    0.1
  6221.974   47409.5986    0.1
  6221.992   47381.2720    0.1
  6222.009   47449.3995    0.1
  6222.026   47474.2867    0.1
  6222.044   47559.4012    0.1
  6222.061   47666.7748    0.1
  6222.079   48087.3503    0.1
  6222.096   48460.2454    0.1
  6222.113   48923.1323    0.1
  6222.131   49445.6103    0.1
  6222.148   50256.9600    0.1
  6222.166   51034.2832    0.1
  6222.183   51778.8252    0.1
  6222.200   52674.3826    0.1
  6222.218   53550.9351    0.1
  6222.235   54276.3696    0.1
  6222.253   55020.1655    0.1
  6222.270   55591.8743    0.1
  6222.288   56134.5875    0.1
  6222.305   56697.9092    0.1
  6222.322   57036.5823    0.1
  6222.340   57336.4037    0.1
  6222.357   57490.3618    0.1
  6222.375   57570.0167    0.1
  6222.392   57516.7008    0.1
  6222.409   57407.6718    0.1
  6222.427   57343.9890    0.1
  6222.444   57047.3005    0.1
  6222.462   56636.9175    0.1
  6222.479   56289.4016    0.1
  6222.496   55819.3953    0.1
  6222.514   55195.1454    0.1
  6222.531   54757.3086    0.1
  6222.549   54295.7534    0.1
  6222.566   53804.0058    0.1
  6222.584   53367.4529    0.1
  6222.601   52630.9910    0.1
  6222.618   51985.0842    0.1
  6222.636   51537.4049    0.1
  6222.653   51020.9022    0.1
  6222.671   50570.4506    0.1
  6222.688   50002.8723    0.1
  6222.705   49537.4355    0.1
  6222.723   49041.3094    0.1
  6222.740   48667.3403    0.1
  6222.758   48015.9640    0.1
  6222.775   47498.3245    0.1
  6222.792   47367.0953    0.1
  6222.810   46866.7630    0.1
  6222.827   46377.5342    0.1
  6222.845   46156.3560    0.1
  6222.862   45898.4685    0.1
  6222.880   45534.1065    0.1
  6222.897   45090.8027    0.1
  6222.914   44800.0608    0.1
  6222.932   44535.1199    0.1
  6222.949   44424.1765    0.1
  6222.967   44252.3563    0.1
  6222.984   44186.0207    0.1
  6223.001   44059.8199    0.1
  6223.019   44017.4393    0.1
  6223.036   44081.3884    0.1
  6223.054   44220.0432    0.1
  6223.071   44374.0326    0.1
  6223.088   44357.9535    0.1
  6223.106   44884.7501    0.1
  6223.123   44902.2508    0.1
  6223.141   45081.3097    0.1
  6223.158   45264.9132    0.1
  6223.175   45488.6917    0.1
  6223.193   45673.9656    0.1
  6223.210   45954.1179    0.1
  6223.228   46319.6522    0.1
  6223.245   46470.2580    0.1
  6223.263   46690.7485    0.1
  6223.280   46942.6623    0.1
  6223.297   47113.0926    0.1
  6223.315   47359.1173    0.1
  6223.332   47628.1600    0.1
  6223.350   47883.2314    0.1
  6223.367   48050.9441    0.1
  6223.384   48275.7959    0.1
  6223.402   48482.7255    0.1
  6223.419   48587.6616    0.1
  6223.437   48710.5579    0.1
  6223.454   48886.3338    0.1
  6223.471   49082.9419    0.1
  6223.489   49250.9949    0.1
  6223.506   49581.4234    0.1
  6223.524   49739.9942    0.1
  6223.541   49889.0562    0.1
  6223.559   50015.0157    0.1
  6223.576   50103.4246    0.1
  6223.593   50117.0813    0.1
  6223.611   50230.4614    0.1
  6223.628   50379.1292    0.1
  6223.646   50451.8013    0.1
  6223.663   50545.5757    0.1
  6223.680   50596.2887    0.1
  6223.698   50621.7183    0.1
  6223.715   50614.7872    0.1
  6223.733   50586.3436    0.1
  6223.750   50554.8844    0.1
  6223.767   50391.9872    0.1
  6223.785   50559.2111    0.1
  6223.802   50515.2683    0.1
  6223.820   50506.4867    0.1
  6223.837   50496.6454    0.1
  6223.855   50517.7399    0.1
  6223.872   50520.5388    0.1
  6223.889   50580.0718    0.1
  6223.907   50635.5568    0.1
  6223.924   50639.8863    0.1
  6223.942   50759.0341    0.1
  6223.959   50822.9750    0.1
  6223.976   50869.0065    0.1
  6223.994   50814.0876    0.1
  6224.011   50855.8196    0.1
  6224.029   50840.0300    0.1
  6224.046   50963.0720    0.1
  6224.063   51078.7397    0.1
  6224.081   50999.0786    0.1
  6224.098   51042.1984    0.1
  6224.116   51100.6983    0.1
  6224.133   50961.0289    0.1
  6224.151   50780.8910    0.1
  6224.168   50560.6498    0.1
  6224.185   50250.6774    0.1
  6224.203   50173.4501    0.1
  6224.220   49900.3843    0.1
  6224.238   49629.6551    0.1
  6224.255   49368.8960    0.1
  6224.272   49209.5799    0.1
  6224.290   48823.4612    0.1
  6224.307   48410.1401    0.1
  6224.325   48000.8793    0.1
  6224.342   47798.6277    0.1
  6224.359   47560.0014    0.1
  6224.377   47291.1636    0.1
  6224.394   47132.7132    0.1
  6224.412   47021.2156    0.1
  6224.429   47102.7461    0.1
  6224.447   46987.6798    0.1
  6224.464   47041.9080    0.1
  6224.481   47217.9639    0.1
  6224.499   47233.1457    0.1
  6224.516   47251.4769    0.1
  6224.534   47274.9519    0.1
  6224.551   47241.5166    0.1
  6224.568   47094.5657    0.1
  6224.586   46910.3700    0.1
  6224.603   46772.0783    0.1
  6224.621   46436.5041    0.1
  6224.638   45985.9776    0.1
  6224.655   45582.9504    0.1
  6224.673   45210.5514    0.1
  6224.690   44629.6479    0.1
  6224.708   44188.2468    0.1
  6224.725   43544.1284    0.1
  6224.743   42934.9406    0.1
  6224.760   42482.2899    0.1
  6224.777   42068.8074    0.1
  6224.795   41532.5718    0.1
  6224.812   41112.6713    0.1
  6224.830   40728.6045    0.1
  6224.847   40389.0963    0.1
  6224.864   40375.8392    0.1
  6224.882   40206.7122    0.1
  6224.899   40099.1711    0.1
  6224.917   40165.8684    0.1
  6224.934   40173.2938    0.1
  6224.951   40578.2627    0.1
  6224.969   40730.4758    0.1
  6224.986   41010.2316    0.1
  6225.004   41381.6312    0.1
  6225.021   41692.4746    0.1
  6225.038   42168.3108    0.1
  6225.056   42711.8561    0.1
  6225.073   42912.2122    0.1
  6225.091   43626.7770    0.1
  6225.108   44148.1585    0.1
  6225.126   44453.4053    0.1
  6225.143   45027.3902    0.1
  6225.160   45693.6382    0.1
  6225.178   46171.0111    0.1
  6225.195   46587.8466    0.1
  6225.213   47241.1539    0.1
  6225.230   47697.8919    0.1
  6225.247   48153.9676    0.1
  6225.265   48602.4272    0.1
  6225.282   48838.9140    0.1
  6225.300   48838.2596    0.1
  6225.317   48966.4633    0.1
  6225.334   49550.1226    0.1
  6225.352   49695.7515    0.1
  6225.369   49767.3179    0.1
  6225.387   49944.6249    0.1
  6225.404   50057.8551    0.1
  6225.422   50094.0334    0.1
  6225.439   50183.8091    0.1
  6225.456   50333.9986    0.1
  6225.474   50516.5876    0.1
  6225.491   50532.7988    0.1
  6225.509   50633.0006    0.1
  6225.526   50705.5632    0.1
  6225.543   50896.3536    0.1
  6225.561   50847.4491    0.1
  6225.578   50949.8593    0.1
  6225.596   51001.0564    0.1
  6225.613   51049.1317    0.1
  6225.630   51213.2158    0.1
  6225.648   51402.9049    0.1
  6225.665   51473.6309    0.1
  6225.683   51667.1186    0.1
  6225.700   51884.7205    0.1
  6225.718   52077.8182    0.1
  6225.735   52080.0296    0.1
  6225.752   52140.1451    0.1
  6225.770   52399.5283    0.1
  6225.787   52581.5274    0.1
  6225.805   52716.2550    0.1
  6225.822   52967.0785    0.1
  6225.839   53165.3284    0.1
  6225.857   53348.3572    0.1
  6225.874   53498.5445    0.1
  6225.892   53789.4454    0.1
  6225.909   54114.0310    0.1
  6225.926   54197.0465    0.1
  6225.944   54668.3230    0.1
  6225.961   54985.1663    0.1
  6225.979   55150.3425    0.1
  6225.996   55439.2875    0.1
  6226.014   55665.2425    0.1
  6226.031   55774.5434    0.1
  6226.048   55966.8587    0.1
  6226.066   56067.1654    0.1
  6226.083   56062.9876    0.1
  6226.101   55954.6137    0.1
  6226.118   55752.8796    0.1
  6226.135   55792.2860    0.1
  6226.153   55525.0488    0.1
  6226.170   55157.2139    0.1
  6226.188   54902.3530    0.1
  6226.205   54552.1505    0.1
  6226.222   54433.9880    0.1
  6226.240   54186.5226    0.1
  6226.257   53854.1503    0.1
  6226.275   53552.2023    0.1
  6226.292   53297.3772    0.1
  6226.310   52915.9956    0.1
  6226.327   52702.1025    0.1
  6226.344   52661.2578    0.1
  6226.362   52523.2604    0.1
  6226.379   52370.2588    0.1
  6226.397   52135.8908    0.1
  6226.414   52088.4888    0.1
  6226.431   52026.7987    0.1
  6226.449   51860.4580    0.1
  6226.466   51605.5694    0.1
  6226.484   51401.8339    0.1
  6226.501   51252.8346    0.1
  6226.518   51041.0157    0.1
  6226.536   50951.9358    0.1
  6226.553   50844.2508    0.1
  6226.571   50617.9430    0.1
  6226.588   50356.2249    0.1
  6226.606   50294.8019    0.1
  6226.623   50226.4272    0.1
  6226.640   50109.1011    0.1
  6226.658   50023.2604    0.1
  6226.675   50112.8576    0.1
  6226.693   50096.0218    0.1
  6226.710   50046.2383    0.1
  6226.727   50047.2852    0.1
  6226.745   50023.8795    0.1
  6226.762   49896.2185    0.1
  6226.780   50034.9657    0.1
  6226.797   50141.3333    0.1
  6226.814   50135.3323    0.1
  6226.832   50090.9224    0.1
  6226.849   50086.5462    0.1
  6226.867   50069.0418    0.1
  6226.884   49710.4505    0.1
  6226.902   49298.0608    0.1
  6226.919   48976.8911    0.1
  6226.936   48687.0678    0.1
  6226.954   48623.4293    0.1
  6226.971   48338.8309    0.1
  6226.989   48143.2762    0.1
  6227.006   47827.2459    0.1
  6227.023   47515.5738    0.1
  6227.041   47328.9731    0.1
  6227.058   47172.9761    0.1
  6227.076   47027.3242    0.1
  6227.093   47005.8859    0.1
  6227.110   46933.7307    0.1
  6227.128   46859.0597    0.1
  6227.145   47072.3174    0.1
  6227.163   47254.4335    0.1
  6227.180   47458.8926    0.1
  6227.197   47619.0287    0.1
  6227.215   48024.8638    0.1
  6227.232   48453.5476    0.1
  6227.250   48772.3995    0.1
  6227.267   49208.6997    0.1
  6227.285   49639.4741    0.1
  6227.302   49969.1470    0.1
  6227.319   50469.3491    0.1
  6227.337   50894.5799    0.1
  6227.354   51149.5109    0.1
  6227.372   51541.0504    0.1
  6227.389   51798.5333    0.1
  6227.406   52139.0569    0.1
  6227.424   52400.6673    0.1
  6227.441   52714.4709    0.1
  6227.459   52742.7725    0.1
  6227.476   52737.4112    0.1
  6227.493   53033.6930    0.1
  6227.511   53461.9349    0.1
  6227.528   53600.5809    0.1
  6227.546   53695.6737    0.1
  6227.563   53952.3486    0.1
  6227.581   54208.6814    0.1
  6227.598   54365.3965    0.1
  6227.615   54376.1011    0.1
  6227.633   54481.0928    0.1
  6227.650   54545.0332    0.1
  6227.668   54467.9982    0.1
  6227.685   54416.9096    0.1
  6227.702   54298.1617    0.1
  6227.720   54156.4115    0.1
  6227.737   54056.6911    0.1
  6227.755   53707.0199    0.1
  6227.772   53439.0269    0.1
  6227.789   53044.1981    0.1
  6227.807   52677.6644    0.1
  6227.824   52305.4794    0.1
  6227.842   52038.4853    0.1
  6227.859   51545.1509    0.1
  6227.877   51030.7075    0.1
  6227.894   50636.2645    0.1
  6227.911   50189.2127    0.1
  6227.929   49797.1214    0.1
  6227.946   49626.8287    0.1
  6227.964   49373.9688    0.1
  6227.981   49187.9653    0.1
  6227.998   49109.7014    0.1
  6228.016   48968.2203    0.1
  6228.033   48967.3821    0.1
  6228.051   49035.7250    0.1
  6228.068   49135.6518    0.1
  6228.085   49244.5769    0.1
  6228.103   49348.9392    0.1
  6228.120   49489.1928    0.1
  6228.138   49653.5789    0.1
  6228.155   49685.6569    0.1
  6228.173   49932.3231    0.1
  6228.190   50115.6463    0.1
  6228.207   50218.7989    0.1
  6228.225   50323.5869    0.1
  6228.242   50549.1480    0.1
  6228.260   50478.0764    0.1
  6228.277   50680.8848    0.1
  6228.294   50707.0672    0.1
  6228.312   50807.5538    0.1
  6228.329   50871.4281    0.1
  6228.347   51063.8738    0.1
  6228.364   51270.2449    0.1
  6228.381   51334.1718    0.1
  6228.399   51486.8085    0.1
  6228.416   51617.9236    0.1
  6228.434   51844.7675    0.1
  6228.451   51923.1302    0.1
  6228.469   52060.4684    0.1
  6228.486   52158.8036    0.1
  6228.503   52299.5692    0.1
  6228.521   52389.6290    0.1
  6228.538   52467.8748    0.1
  6228.556   52811.8252    0.1
  6228.573   52917.4996    0.1
  6228.590   52814.6900    0.1
  6228.608   52929.5019    0.1
  6228.625   52820.6144    0.1
  6228.643   52825.9476    0.1
  6228.660   52734.3370    0.1
  6228.677   52609.7053    0.1
  6228.695   52521.9879    0.1
  6228.712   52416.3634    0.1
  6228.730   52259.3068    0.1
  6228.747   52235.9703    0.1
  6228.765   52259.2666    0.1
  6228.782   52244.3270    0.1
  6228.799   52277.1897    0.1
  6228.817   52332.2991    0.1
  6228.834   52222.0829    0.1
  6228.852   52158.3188    0.1
  6228.869   52181.9470    0.1
  6228.886   52252.3105    0.1
  6228.904   52334.5035    0.1
  6228.921   52549.6160    0.1
  6228.939   52791.3501    0.1
  6228.956   53010.3050    0.1
  6228.973   53261.9126    0.1
  6228.991   53692.3057    0.1
  6229.008   54101.9014    0.1
  6229.026   54374.9395    0.1
  6229.043   54670.8870    0.1
  6229.060   55117.7303    0.1
  6229.078   55476.5070    0.1
  6229.095   55826.2712    0.1
  6229.113   56042.2608    0.1
  6229.130   56189.9387    0.1
  6229.148   56379.2300    0.1
  6229.165   56389.0550    0.1
  6229.182   56309.1967    0.1
  6229.200   56194.3483    0.1
  6229.217   55851.5650    0.1
  6229.235   55461.5672    0.1
  6229.252   55119.5171    0.1
  6229.269   54729.1615    0.1
  6229.287   54234.6690    0.1
  6229.304   53834.0416    0.1
  6229.322   53137.1999    0.1
  6229.339   52512.3746    0.1
  6229.356   52014.2704    0.1
  6229.374   51383.2993    0.1
  6229.391   50726.3890    0.1
  6229.409   50222.9191    0.1
  6229.426   49594.9643    0.1
  6229.444   48927.7012    0.1
  6229.461   48380.9064    0.1
  6229.478   47626.0216    0.1
  6229.496   47045.9182    0.1
  6229.513   46672.6696    0.1
  6229.531   46079.6559    0.1
  6229.548   45626.7606    0.1
  6229.565   45395.6316    0.1
  6229.583   45072.9959    0.1
  6229.600   44674.2440    0.1
  6229.618   44440.8684    0.1
  6229.635   44334.3011    0.1
  6229.652   44388.4228    0.1
  6229.670   44408.5545    0.1
  6229.687   44412.3403    0.1
  6229.705   44413.1579    0.1
  6229.722   44491.1426    0.1
  6229.740   44780.4780    0.1
  6229.757   44983.7529    0.1
  6229.774   45207.4105    0.1
  6229.792   45504.4516    0.1
  6229.809   45970.3461    0.1
  6229.827   46351.3481    0.1
  6229.844   46669.4612    0.1
  6229.861   47131.4342    0.1
  6229.879   47633.1929    0.1
  6229.896   47900.3291    0.1
  6229.914   48382.4567    0.1
  6229.931   48915.3366    0.1
  6229.948   49206.1878    0.1
  6229.966   49452.4935    0.1
  6229.983   49697.1932    0.1
  6230.001   49847.4360    0.1
  6230.018   50036.5205    0.1
  6230.036   50117.1302    0.1
  6230.053   50017.0732    0.1
  6230.070   49932.2837    0.1
  6230.088   49996.9413    0.1
  6230.105   50152.6978    0.1
  6230.123   49980.7836    0.1
  6230.140   50030.9525    0.1
  6230.157   49969.4138    0.1
  6230.175   49947.3263    0.1
  6230.192   49858.2816    0.1
  6230.210   49801.5539    0.1
  6230.227   49743.1110    0.1
  6230.244   49631.2610    0.1
  6230.262   49650.9961    0.1
  6230.279   49430.8262    0.1
  6230.297   49149.9809    0.1
  6230.314   48910.1990    0.1
  6230.332   48942.3471    0.1
  6230.349   48864.5465    0.1
  6230.366   48699.4148    0.1
  6230.384   48572.0806    0.1
  6230.401   48497.8249    0.1
  6230.419   48558.4481    0.1
  6230.436   48457.0262    0.1
  6230.453   48404.9786    0.1
  6230.471   48350.4978    0.1
  6230.488   48317.7482    0.1
  6230.506   48267.1830    0.1
  6230.523   48192.0585    0.1
  6230.540   47999.9427    0.1
  6230.558   48006.8887    0.1
  6230.575   47902.0710    0.1
  6230.593   47788.4024    0.1
  6230.610   47752.4491    0.1
  6230.628   47612.3112    0.1
  6230.645   47410.5555    0.1
  6230.662   47194.7762    0.1
  6230.680   47045.6491    0.1
  6230.697   46817.9930    0.1
  6230.715   46658.3528    0.1
  6230.732   46340.2290    0.1
  6230.749   45895.0390    0.1
  6230.767   45533.6988    0.1
  6230.784   45140.7452    0.1
  6230.802   44649.2637    0.1
  6230.819   44182.1087    0.1
  6230.836   43664.2439    0.1
  6230.854   43014.2300    0.1
  6230.871   42421.0495    0.1
  6230.889   41871.7336    0.1
  6230.906   41151.4666    0.1
  6230.923   40478.8661    0.1
  6230.941   39899.1243    0.1
  6230.958   39055.7872    0.1
  6230.976   38268.6933    0.1
  6230.993   37741.4809    0.1
  6231.011   37216.2478    0.1
  6231.028   36714.9185    0.1
  6231.045   36205.7745    0.1
  6231.063   35707.4043    0.1
  6231.080   35342.8335    0.1
  6231.098   35239.5286    0.1
  6231.115   34902.5564    0.1
  6231.132   34675.5239    0.1
  6231.150   34555.4876    0.1
  6231.167   34551.7516    0.1
  6231.185   34538.5047    0.1
  6231.202   34610.3245    0.1
  6231.219   34800.2096    0.1
  6231.237   35008.9380    0.1
  6231.254   35216.6911    0.1
  6231.272   35326.3289    0.1
  6231.289   35653.9568    0.1
  6231.307   36006.0011    0.1
  6231.324   36336.6662    0.1
  6231.341   36617.3255    0.1
  6231.359   37038.4000    0.1
  6231.376   37454.8644    0.1
  6231.394   37876.9303    0.1
  6231.411   38404.4233    0.1
  6231.428   38899.9207    0.1
  6231.446   39348.5151    0.1
  6231.463   40012.1856    0.1
  6231.481   40626.0407    0.1
  6231.498   41139.4449    0.1
  6231.515   41874.9553    0.1
  6231.533   42625.3843    0.1
  6231.550   43209.9665    0.1
  6231.568   44040.6745    0.1
  6231.585   44822.0190    0.1
  6231.603   45683.7667    0.1
  6231.620   45987.5285    0.1
  6231.637   46778.9579    0.1
  6231.655   47326.0219    0.1
  6231.672   47983.9300    0.1
  6231.690   48650.0120    0.1
  6231.707   49130.2711    0.1
  6231.724   49775.7030    0.1
  6231.742   50311.9971    0.1
  6231.759   50481.5747    0.1
  6231.777   50791.5336    0.1
  6231.794   51153.7824    0.1
  6231.811   51317.1945    0.1
  6231.829   51341.3827    0.1
  6231.846   51541.6272    0.1
  6231.864   51837.5392    0.1
  6231.881   51930.2067    0.1
  6231.899   52007.1699    0.1
  6231.916   51806.9668    0.1
  6231.933   51912.5730    0.1
  6231.951   51757.2016    0.1
  6231.968   51854.2346    0.1
  6231.986   51842.0872    0.1
  6232.003   51822.5232    0.1
  6232.020   51900.2753    0.1
  6232.038   51855.1114    0.1
  6232.055   51780.0523    0.1
  6232.073   51856.8433    0.1
  6232.090   51809.7595    0.1
  6232.107   51982.2570    0.1
  6232.125   52202.2543    0.1
  6232.142   52277.3760    0.1
  6232.160   52317.3767    0.1
  6232.177   52532.6306    0.1
  6232.195   52753.8699    0.1
  6232.212   52866.8865    0.1
  6232.229   53269.4857    0.1
  6232.247   53281.8347    0.1
  6232.264   53271.9839    0.1
  6232.282   53629.9027    0.1
  6232.299   53734.9110    0.1
  6232.316   54045.7993    0.1
  6232.334   53779.7864    0.1
  6232.351   53934.5420    0.1
  6232.369   53906.6798    0.1
  6232.386   53805.2850    0.1
  6232.403   53621.7141    0.1
  6232.421   53545.9400    0.1
  6232.438   53511.1342    0.1
  6232.456   53328.0508    0.1
  6232.473   53132.9814    0.1
  6232.491   52987.2996    0.1
  6232.508   52953.9920    0.1
  6232.525   52913.8487    0.1
  6232.543   52909.0167    0.1
  6232.560   53170.2735    0.1
  6232.578   53201.5401    0.1
  6232.595   53210.7602    0.1
  6232.612   53321.9535    0.1
  6232.630   53488.1595    0.1
  6232.647   53573.0967    0.1
  6232.665   53545.3987    0.1
  6232.682   53872.6875    0.1
  6232.699   53737.8534    0.1
  6232.717   53471.6602    0.1
  6232.734   53494.4302    0.1
  6232.752   53238.9365    0.1
  6232.769   52768.1292    0.1
  6232.787   52283.4490    0.1
  6232.804   51775.5595    0.1
  6232.821   51559.0254    0.1
  6232.839   50969.5137    0.1
  6232.856   50406.7870    0.1
  6232.874   49873.7518    0.1
  6232.891   49481.6358    0.1
  6232.908   48963.0354    0.1
  6232.926   48489.1589    0.1
  6232.943   48085.2281    0.1
  6232.961   47237.7323    0.1
  6232.978   46839.2541    0.1
  6232.995   46469.5644    0.1
  6233.013   46034.5817    0.1
  6233.030   45665.6991    0.1
  6233.048   45410.0533    0.1
  6233.065   45336.3413    0.1
  6233.082   45382.2536    0.1
  6233.100   45321.5162    0.1
  6233.117   45262.2900    0.1
  6233.135   45366.8001    0.1
  6233.152   45489.7304    0.1
  6233.170   45746.1898    0.1
  6233.187   46000.0009    0.1
  6233.204   45988.6828    0.1
  6233.222   46179.6620    0.1
  6233.239   46498.1649    0.1
  6233.257   46913.6617    0.1
  6233.274   47077.4593    0.1
  6233.291   46985.3718    0.1
  6233.309   46818.3566    0.1
  6233.326   46597.5460    0.1
  6233.344   46270.4033    0.1
  6233.361   46116.1792    0.1
  6233.378   45727.5646    0.1
  6233.396   45328.3480    0.1
  6233.413   44891.7121    0.1
  6233.431   44287.9160    0.1
  6233.448   43757.2650    0.1
  6233.466   43261.0843    0.1
  6233.483   42726.7947    0.1
  6233.500   42409.5856    0.1
  6233.518   42328.6401    0.1
  6233.535   42092.3990    0.1
  6233.553   41855.0079    0.1
  6233.570   41761.0835    0.1
  6233.587   41634.1747    0.1
  6233.605   41732.4237    0.1
  6233.622   41913.8198    0.1
  6233.640   42163.8697    0.1
  6233.657   42645.8781    0.1
  6233.674   42930.4161    0.1
  6233.692   43325.6607    0.1
  6233.709   43796.4041    0.1
  6233.727   44171.0568    0.1
  6233.744   44725.7713    0.1
  6233.762   45508.8443    0.1
  6233.779   46175.7766    0.1
  6233.796   46596.6723    0.1
  6233.814   47191.2879    0.1
  6233.831   47969.6134    0.1
  6233.849   48612.4158    0.1
  6233.866   49303.3521    0.1
  6233.883   50186.6183    0.1
  6233.901   50717.2723    0.1
  6233.918   51376.4838    0.1
  6233.936   52083.0013    0.1
  6233.953   52626.0314    0.1
  6233.970   53386.4297    0.1
  6233.988   54101.8852    0.1
  6234.005   54535.7400    0.1
  6234.023   54738.8595    0.1
  6234.040   55239.7476    0.1
  6234.058   55852.7559    0.1
  6234.075   56155.1627    0.1
  6234.092   56282.6688    0.1
  6234.110   56378.2710    0.1
  6234.127   56454.9037    0.1
  6234.145   56622.4864    0.1
  6234.162   56514.4133    0.1
  6234.179   56383.8929    0.1
  6234.197   56307.0648    0.1
  6234.214   56237.6943    0.1
  6234.232   56091.2354    0.1
  6234.249   55772.6036    0.1
  6234.266   55482.0402    0.1
  6234.284   55334.3933    0.1
  6234.301   55236.1737    0.1
  6234.319   55116.6466    0.1
  6234.336   54995.3452    0.1
  6234.354   54671.8272    0.1
  6234.371   54507.5996    0.1
  6234.388   54457.9502    0.1
  6234.406   54612.8922    0.1
  6234.423   54573.9797    0.1
  6234.441   54565.9551    0.1
  6234.458   54559.4364    0.1
  6234.475   54651.8482    0.1
  6234.493   54794.2881    0.1
  6234.510   54881.8200    0.1
  6234.528   55007.4060    0.1
  6234.545   55261.1037    0.1
  6234.562   55462.7886    0.1
  6234.580   55762.5835    0.1
  6234.597   55994.0501    0.1
  6234.615   56559.9113    0.1
  6234.632   57062.4907    0.1
  6234.650   57306.6977    0.1
  6234.667   57719.9144    0.1
  6234.684   58149.2806    0.1
  6234.702   58452.3014    0.1
  6234.719   58753.0231    0.1
  6234.737   59029.3649    0.1
  6234.754   59194.5130    0.1
  6234.771   59309.3866    0.1
  6234.789   59266.7464    0.1
  6234.806   59348.1335    0.1
  6234.824   59565.3869    0.1
  6234.841   59656.0431    0.1
  6234.858   59544.4570    0.1
  6234.876   59415.8515    0.1
  6234.893   59048.2916    0.1
  6234.911   58651.4034    0.1
  6234.928   58306.5322    0.1
  6234.945   57936.1018    0.1
  6234.963   57696.7463    0.1
  6234.980   57586.2057    0.1
  6234.998   57392.1422    0.1
  6235.015   57181.2834    0.1
  6235.033   57080.0871    0.1
  6235.050   57149.7373    0.1
  6235.067   56793.5891    0.1
  6235.085   56686.0869    0.1
  6235.102   56784.6365    0.1
  6235.120   56732.5154    0.1
  6235.137   56719.6680    0.1
  6235.154   56554.7136    0.1
  6235.172   56481.7598    0.1
  6235.189   56110.7068    0.1
  6235.207   56049.1371    0.1
  6235.224   55846.6444    0.1
  6235.241   55733.2890    0.1
  6235.259   55504.9269    0.1
  6235.276   55705.4224    0.1
  6235.294   55689.7363    0.1
  6235.311   55670.6960    0.1
  6235.329   55696.0815    0.1
  6235.346   55838.7346    0.1
  6235.363   56105.6171    0.1
  6235.381   56360.3643    0.1
  6235.398   56605.0611    0.1
  6235.416   57089.7546    0.1
  6235.433   57554.4156    0.1
  6235.450   57788.0506    0.1
  6235.468   58013.3918    0.1
  6235.485   58171.8502    0.1
  6235.503   58271.9941    0.1
  6235.520   58276.5879    0.1
  6235.537   58286.0443    0.1
  6235.555   58175.2729    0.1
  6235.572   58000.3838    0.1
  6235.590   57671.0838    0.1
  6235.607   57395.0817    0.1
  6235.625   57219.4246    0.1
  6235.642   57057.3885    0.1
  6235.659   56773.2378    0.1
  6235.677   56720.6294    0.1
  6235.694   56653.7878    0.1
  6235.712   56706.9024    0.1
  6235.729   56654.2912    0.1
  6235.746   56713.7810    0.1
  6235.764   56823.3553    0.1
  6235.781   56993.2978    0.1
  6235.799   57114.3789    0.1
  6235.816   57229.5968    0.1
  6235.833   57201.8089    0.1
  6235.851   57087.0251    0.1
  6235.868   57005.7192    0.1
  6235.886   56884.4493    0.1
  6235.903   56843.1017    0.1
  6235.921   56918.8649    0.1
  6235.938   56810.0150    0.1
  6235.955   56628.3077    0.1
  6235.973   56487.2178    0.1
  6235.990   56219.8496    0.1
  6236.008   56090.8246    0.1
  6236.025   56079.4502    0.1
  6236.042   55652.2460    0.1
  6236.060   55534.6402    0.1
  6236.077   55497.1866    0.1
  6236.095   55580.4014    0.1
  6236.112   55469.8211    0.1
  6236.129   55301.1457    0.1
  6236.147   55252.8035    0.1
  6236.164   55095.8538    0.1
  6236.182   54853.7291    0.1
  6236.199   54619.0989    0.1
  6236.217   54542.5121    0.1
  6236.234   54346.7788    0.1
  6236.251   54154.9663    0.1
  6236.269   54039.7211    0.1
  6236.286   54046.4736    0.1
  6236.304   53980.7840    0.1
  6236.321   53622.4857    0.1
  6236.338   53300.8483    0.1
  6236.356   53134.0178    0.1
  6236.373   52980.7661    0.1
  6236.391   52803.5580    0.1
  6236.408   52986.4423    0.1
  6236.425   52968.8866    0.1
  6236.443   52976.4472    0.1
  6236.460   53022.8821    0.1
  6236.478   53142.2398    0.1
  6236.495   53317.9670    0.1
  6236.513   53544.4867    0.1
  6236.530   53851.5561    0.1
  6236.547   54032.3654    0.1
  6236.565   54353.4721    0.1
  6236.582   54530.8654    0.1
  6236.600   54661.2688    0.1
  6236.617   55040.2216    0.1
  6236.634   55288.2511    0.1
  6236.652   55442.6095    0.1
  6236.669   55705.9248    0.1
  6236.687   55945.6494    0.1
  6236.704   56061.6863    0.1
  6236.721   56195.7467    0.1
  6236.739   56257.6467    0.1
  6236.756   56473.0459    0.1
  6236.774   56711.9236    0.1
  6236.791   56655.9208    0.1
  6236.809   56883.7405    0.1
  6236.826   57121.2176    0.1
  6236.843   57202.6144    0.1
  6236.861   57160.5075    0.1
  6236.878   57456.6719    0.1
  6236.896   57704.0990    0.1
  6236.913   57875.4012    0.1
  6236.930   58139.2467    0.1
  6236.948   58230.7639    0.1
  6236.965   58392.6091    0.1
  6236.983   58467.0842    0.1
  6237.000   58794.0736    0.1
  6237.017   58884.7302    0.1
  6237.035   58794.5204    0.1
  6237.052   58872.2550    0.1
  6237.070   59086.1514    0.1
  6237.087   59107.1881    0.1
  6237.104   59150.7080    0.1
  6237.122   59226.8778    0.1
  6237.139   59190.1506    0.1
  6237.157   59207.5136    0.1
  6237.174   59111.5421    0.1
  6237.192   58891.6567    0.1
  6237.209   58947.0986    0.1
  6237.226   58653.8256    0.1
  6237.244   58378.8546    0.1
  6237.261   58132.4001    0.1
  6237.279   57773.4887    0.1
  6237.296   57505.1479    0.1
  6237.313   57282.1159    0.1
  6237.331   56904.8824    0.1
  6237.348   56341.1125    0.1
  6237.366   55914.9311    0.1
  6237.383   55607.9501    0.1
  6237.400   55278.9929    0.1
  6237.418   55021.7973    0.1
  6237.435   54511.9827    0.1
  6237.453   54085.0849    0.1
  6237.470   53656.5304    0.1
  6237.488   53191.0096    0.1
  6237.505   52912.6315    0.1
  6237.522   52670.8143    0.1
  6237.540   52202.0891    0.1
  6237.557   51950.7963    0.1
  6237.575   51588.8985    0.1
  6237.592   51306.0856    0.1
  6237.609   51011.6011    0.1
  6237.627   50700.4906    0.1
  6237.644   50539.1766    0.1
  6237.662   50751.8835    0.1
  6237.679   50640.8654    0.1
  6237.696   50639.4416    0.1
  6237.714   50801.8565    0.1
  6237.731   50906.2751    0.1
  6237.749   51040.9409    0.1
  6237.766   51300.9145    0.1
  6237.784   51397.6927    0.1
  6237.801   51591.1864    0.1
  6237.818   51825.9860    0.1
  6237.836   51952.1133    0.1
  6237.853   52208.6036    0.1
  6237.871   52432.5931    0.1
  6237.888   52537.1780    0.1
  6237.905   52620.9371    0.1
  6237.923   52769.5728    0.1
  6237.940   52883.8189    0.1
  6237.958   53063.4741    0.1
  6237.975   53152.2934    0.1
  6237.992   53440.6804    0.1
  6238.010   53761.5790    0.1
  6238.027   53866.0076    0.1
  6238.045   53928.7731    0.1
  6238.062   53851.9502    0.1
  6238.080   53832.9945    0.1
  6238.097   54000.7663    0.1
  6238.114   54339.3844    0.1
  6238.132   54468.2147    0.1
  6238.149   54602.7431    0.1
  6238.167   54697.7559    0.1
  6238.184   55005.4969    0.1
  6238.201   55053.4014    0.1
  6238.219   55159.7270    0.1
  6238.236   55128.2252    0.1
  6238.254   55381.3861    0.1
  6238.271   55781.5416    0.1
  6238.288   56009.2187    0.1
  6238.306   56155.6259    0.1
  6238.323   56177.3394    0.1
  6238.341   56320.5682    0.1
  6238.358   56380.8078    0.1
  6238.376   56336.2887    0.1
  6238.393   56540.5538    0.1
  6238.410   56516.5981    0.1
  6238.428   56592.0518    0.1
  6238.445   56680.7262    0.1
  6238.463   56506.5911    0.1
  6238.480   56367.7831    0.1
  6238.497   56104.1767    0.1
  6238.515   56053.7289    0.1
  6238.532   55843.9628    0.1
  6238.550   55746.1205    0.1
  6238.567   55565.1969    0.1
  6238.584   55308.6565    0.1
  6238.602   55084.5813    0.1
  6238.619   54950.2074    0.1
  6238.637   54899.7745    0.1
  6238.654   54757.8237    0.1
  6238.672   54451.2168    0.1
  6238.689   54078.5475    0.1
  6238.706   53737.8278    0.1
  6238.724   53626.1441    0.1
  6238.741   53093.0980    0.1
  6238.759   53052.6179    0.1
  6238.776   52491.0022    0.1
  6238.793   52160.1150    0.1
  6238.811   51788.1430    0.1
  6238.828   51478.0078    0.1
  6238.846   51269.0838    0.1
  6238.863   51016.4074    0.1
  6238.880   50801.6352    0.1
  6238.898   50828.0451    0.1
  6238.915   50576.1034    0.1
  6238.933   50525.3571    0.1
  6238.950   50490.9423    0.1
  6238.967   50619.2789    0.1
  6238.985   50695.3622    0.1
  6239.002   50748.2329    0.1
  6239.020   50513.6449    0.1
  6239.037   50690.8409    0.1
  6239.055   50722.4730    0.1
  6239.072   50845.0083    0.1
  6239.089   51000.8098    0.1
  6239.107   50992.4928    0.1
  6239.124   51133.6680    0.1
  6239.142   51298.4954    0.1
  6239.159   51403.9937    0.1
  6239.176   51755.7471    0.1
  6239.194   51649.4561    0.1
  6239.211   51652.4257    0.1
  6239.229   51724.2428    0.1
  6239.246   51919.4624    0.1
  6239.263   52069.2708    0.1
  6239.281   51933.7643    0.1
  6239.298   51942.0326    0.1
  6239.316   51961.7872    0.1
  6239.333   51700.2836    0.1
  6239.351   51714.3371    0.1
  6239.368   51715.5008    0.1
  6239.385   51616.8029    0.1
  6239.403   51483.6877    0.1
  6239.420   51411.7560    0.1
  6239.438   51500.1184    0.1
  6239.455   51261.9933    0.1
  6239.472   51084.3478    0.1
  6239.490   50878.3371    0.1
  6239.507   50736.7032    0.1
  6239.525   50656.6984    0.1
  6239.542   50407.7452    0.1
  6239.559   49975.6187    0.1
  6239.577   49956.6630    0.1
  6239.594   49644.8449    0.1
  6239.612   49316.5924    0.1
  6239.629   48928.9805    0.1
  6239.647   48481.6384    0.1
  6239.664   47952.5038    0.1
  6239.681   47436.5242    0.1
  6239.699   47071.3329    0.1
  6239.716   46620.9162    0.1
  6239.734   46111.7254    0.1
  6239.751   45534.1217    0.1
  6239.768   45213.7996    0.1
  6239.786   44857.9063    0.1
  6239.803   44654.4137    0.1
  6239.821   44595.6236    0.1
  6239.838   44509.0880    0.1
  6239.855   44514.8691    0.1
  6239.873   44560.4589    0.1
  6239.890   44463.2448    0.1
  6239.908   44502.8789    0.1
  6239.925   44640.5901    0.1
  6239.943   44674.4063    0.1
  6239.960   44697.2504    0.1
  6239.977   44659.5131    0.1
