#  wavelength    Flux         Std.Dev.
#  [Angstroem]   [F(5500)]    [N/A]

  6270.029   60842.0682    0.1
  6270.047   61298.9463    0.1
  6270.064   61677.3261    0.1
  6270.081   62041.2268    0.1
  6270.099   62332.4360    0.1
  6270.116   62538.8665    0.1
  6270.134   62772.4458    0.1
  6270.151   62939.4357    0.1
  6270.168   63019.4914    0.1
  6270.186   63027.5641    0.1
  6270.203   63081.8593    0.1
  6270.221   63031.1630    0.1
  6270.238   62830.5429    0.1
  6270.256   62778.5689    0.1
  6270.273   62597.4334    0.1
  6270.290   62317.0734    0.1
  6270.308   61880.6864    0.1
  6270.325   61393.5543    0.1
  6270.343   60978.3092    0.1
  6270.360   60442.6206    0.1
  6270.377   59860.3263    0.1
  6270.395   59230.9860    0.1
  6270.412   58456.2878    0.1
  6270.430   57852.8446    0.1
  6270.447   56937.0538    0.1
  6270.464   55982.2993    0.1
  6270.482   55073.1876    0.1
  6270.499   54131.9839    0.1
  6270.517   53346.6083    0.1
  6270.534   52440.7734    0.1
  6270.551   51560.9566    0.1
  6270.569   50958.3298    0.1
  6270.586   50272.7449    0.1
  6270.604   49722.2209    0.1
  6270.621   49384.2068    0.1
  6270.639   49268.2740    0.1
  6270.656   49241.9616    0.1
  6270.673   49352.4312    0.1
  6270.691   49581.9468    0.1
  6270.708   49923.1589    0.1
  6270.726   50488.0327    0.1
  6270.743   50993.0683    0.1
  6270.760   51859.9760    0.1
  6270.778   52800.1475    0.1
  6270.795   53610.9252    0.1
  6270.813   54628.4230    0.1
  6270.830   55552.0967    0.1
  6270.847   56533.2734    0.1
  6270.865   57509.8235    0.1
  6270.882   58229.8576    0.1
  6270.900   59163.8783    0.1
  6270.917   60098.1789    0.1
  6270.935   60738.1189    0.1
  6270.952   61447.5661    0.1
  6270.969   61966.4337    0.1
  6270.987   62389.4496    0.1
  6271.004   62762.7005    0.1
  6271.022   62966.2182    0.1
  6271.039   63291.7904    0.1
  6271.056   63555.4505    0.1
  6271.074   63754.3143    0.1
  6271.091   63961.7021    0.1
  6271.109   64096.9246    0.1
  6271.126   64264.0319    0.1
  6271.143   64508.1897    0.1
  6271.161   64586.0116    0.1
  6271.178   64703.7356    0.1
  6271.196   64760.4438    0.1
  6271.213   64711.7097    0.1
  6271.231   64635.1599    0.1
  6271.248   64555.2943    0.1
  6271.265   64464.9074    0.1
  6271.283   64381.8124    0.1
  6271.300   64225.4367    0.1
  6271.318   63865.0210    0.1
  6271.335   63508.1979    0.1
  6271.352   63117.4730    0.1
  6271.370   62695.3683    0.1
  6271.387   62385.0367    0.1
  6271.405   61844.9818    0.1
  6271.422   61231.9312    0.1
  6271.439   60789.3288    0.1
  6271.457   60286.1716    0.1
  6271.474   59842.4652    0.1
  6271.492   59194.5748    0.1
  6271.509   58544.0000    0.1
  6271.527   57990.0579    0.1
  6271.544   57363.2126    0.1
  6271.561   56857.8582    0.1
  6271.579   56304.1427    0.1
  6271.596   55736.4898    0.1
  6271.614   55409.7286    0.1
  6271.631   55071.1873    0.1
  6271.648   54824.0891    0.1
  6271.666   54705.3927    0.1
  6271.683   54642.7178    0.1
  6271.701   54671.9160    0.1
  6271.718   54867.8086    0.1
  6271.735   55228.2731    0.1
  6271.753   55584.4277    0.1
  6271.770   56089.3530    0.1
  6271.788   56567.9426    0.1
  6271.805   56917.1547    0.1
  6271.823   57431.5545    0.1
  6271.840   57789.0442    0.1
  6271.857   58313.0320    0.1
  6271.875   58852.7973    0.1
  6271.892   59200.9572    0.1
  6271.910   59527.8717    0.1
  6271.927   59715.6710    0.1
  6271.944   59854.4551    0.1
  6271.962   60052.5040    0.1
  6271.979   60185.4586    0.1
  6271.997   60238.8345    0.1
  6272.014   60204.3537    0.1
  6272.031   60145.5804    0.1
  6272.049   60046.5959    0.1
  6272.066   59986.6355    0.1
  6272.084   59839.1149    0.1
  6272.101   59716.6350    0.1
  6272.119   59788.0226    0.1
  6272.136   59861.2386    0.1
  6272.153   59871.8895    0.1
  6272.171   59916.8107    0.1
  6272.188   59991.0490    0.1
  6272.206   60054.0214    0.1
  6272.223   60172.9943    0.1
  6272.240   60391.1869    0.1
  6272.258   60614.0807    0.1
  6272.275   60911.3276    0.1
  6272.293   61170.9708    0.1
  6272.310   61420.1636    0.1
  6272.327   61737.3461    0.1
  6272.345   61947.6682    0.1
  6272.362   62252.5476    0.1
  6272.380   62536.6355    0.1
  6272.397   62658.0951    0.1
  6272.415   62890.6586    0.1
  6272.432   63118.8120    0.1
  6272.449   63352.5259    0.1
  6272.467   63646.7492    0.1
  6272.484   63702.4090    0.1
  6272.502   63915.2782    0.1
  6272.519   64118.7224    0.1
  6272.536   64218.4693    0.1
  6272.554   64265.0059    0.1
  6272.571   64224.7403    0.1
  6272.589   64206.8101    0.1
  6272.606   64123.2653    0.1
  6272.623   64020.5468    0.1
  6272.641   64049.3396    0.1
  6272.658   64001.2820    0.1
  6272.676   63892.9532    0.1
  6272.693   63827.0299    0.1
  6272.710   63843.4576    0.1
  6272.728   63870.0256    0.1
  6272.745   63936.3590    0.1
  6272.763   64034.8483    0.1
  6272.780   64051.2990    0.1
  6272.798   64002.0506    0.1
  6272.815   63905.3284    0.1
  6272.832   63761.3996    0.1
  6272.850   63617.6358    0.1
  6272.867   63479.0120    0.1
  6272.885   63347.6308    0.1
  6272.902   63127.2559    0.1
  6272.919   62875.2480    0.1
  6272.937   62722.2653    0.1
  6272.954   62547.9589    0.1
  6272.972   62421.3962    0.1
  6272.989   62438.5708    0.1
  6273.006   62317.9524    0.1
  6273.024   62128.0136    0.1
  6273.041   62135.6331    0.1
  6273.059   62109.5723    0.1
  6273.076   62129.7761    0.1
  6273.094   62165.4282    0.1
  6273.111   62278.5570    0.1
  6273.128   62388.5761    0.1
  6273.146   62436.3720    0.1
  6273.163   62510.0978    0.1
  6273.181   62607.9738    0.1
  6273.198   62910.6001    0.1
  6273.215   63055.8107    0.1
  6273.233   63265.5121    0.1
  6273.250   63425.4476    0.1
  6273.268   63560.5453    0.1
  6273.285   63615.9469    0.1
  6273.302   63520.4144    0.1
  6273.320   63534.9465    0.1
  6273.337   63469.3674    0.1
  6273.355   63292.5199    0.1
  6273.372   63141.9830    0.1
  6273.390   62756.8297    0.1
  6273.407   62456.4360    0.1
  6273.424   62071.9726    0.1
  6273.442   61707.2529    0.1
  6273.459   61447.9472    0.1
  6273.477   61007.2272    0.1
  6273.494   60490.9676    0.1
  6273.511   59836.5661    0.1
  6273.529   59028.8522    0.1
  6273.546   58356.2113    0.1
  6273.564   57387.3362    0.1
  6273.581   56368.2654    0.1
  6273.598   55436.5867    0.1
  6273.616   54248.5087    0.1
  6273.633   53135.9013    0.1
  6273.651   51806.8901    0.1
  6273.668   50354.0898    0.1
  6273.686   49369.8817    0.1
  6273.703   48196.0467    0.1
  6273.720   47211.2434    0.1
  6273.738   46492.8060    0.1
  6273.755   45825.6689    0.1
  6273.773   45491.2712    0.1
  6273.790   45426.0299    0.1
  6273.807   45588.2903    0.1
  6273.825   45896.6808    0.1
  6273.842   46594.0915    0.1
  6273.860   47499.1001    0.1
  6273.877   48402.5862    0.1
  6273.894   49571.8495    0.1
  6273.912   50643.7067    0.1
  6273.929   51968.8423    0.1
  6273.947   53387.7921    0.1
  6273.964   54388.5501    0.1
  6273.982   55699.2464    0.1
  6273.999   56957.7853    0.1
  6274.016   57876.5504    0.1
  6274.034   58950.9036    0.1
  6274.051   59865.8132    0.1
  6274.069   60650.2480    0.1
  6274.086   61438.2223    0.1
  6274.103   61815.6984    0.1
  6274.121   62248.3812    0.1
  6274.138   62370.3009    0.1
  6274.156   62373.4263    0.1
  6274.173   62358.5124    0.1
  6274.190   62362.6699    0.1
  6274.208   62279.4494    0.1
  6274.225   61905.9604    0.1
  6274.243   61767.5363    0.1
  6274.260   61742.9148    0.1
  6274.278   61837.5257    0.1
  6274.295   61776.4194    0.1
  6274.312   61795.1702    0.1
  6274.330   61771.6272    0.1
  6274.347   61795.4152    0.1
  6274.365   61842.3894    0.1
  6274.382   62023.2191    0.1
  6274.399   62173.5109    0.1
  6274.417   62197.2492    0.1
  6274.434   62524.9095    0.1
  6274.452   62785.4171    0.1
  6274.469   62792.9973    0.1
  6274.486   62699.0259    0.1
  6274.504   62908.3628    0.1
  6274.521   63194.0700    0.1
  6274.539   63231.4430    0.1
  6274.556   62945.2186    0.1
  6274.573   62947.6607    0.1
  6274.591   62742.5005    0.1
  6274.608   62519.5072    0.1
  6274.626   62025.9244    0.1
  6274.643   61675.0252    0.1
  6274.661   61483.7484    0.1
  6274.678   61050.2357    0.1
  6274.695   60463.3975    0.1
  6274.713   59894.6815    0.1
  6274.730   59077.4678    0.1
  6274.748   58643.8344    0.1
  6274.765   58177.1150    0.1
  6274.782   57234.4514    0.1
  6274.800   56468.3486    0.1
  6274.817   55190.1373    0.1
  6274.835   53819.8604    0.1
  6274.852   52788.2067    0.1
  6274.869   51242.5975    0.1
  6274.887   50114.6843    0.1
  6274.904   48838.7646    0.1
  6274.922   47403.3431    0.1
  6274.939   46506.9937    0.1
  6274.957   45337.8781    0.1
  6274.974   44384.3500    0.1
  6274.991   43785.6500    0.1
  6275.009   43242.2821    0.1
  6275.026   42977.6089    0.1
  6275.044   42730.5213    0.1
  6275.061   42608.7638    0.1
  6275.078   42861.0083    0.1
  6275.096   43150.5344    0.1
  6275.113   43476.5154    0.1
  6275.131   43898.0896    0.1
  6275.148   44614.2485    0.1
  6275.165   45263.1274    0.1
  6275.183   46055.8520    0.1
  6275.200   47073.7452    0.1
  6275.218   47742.4939    0.1
  6275.235   48875.1927    0.1
  6275.253   50100.8276    0.1
  6275.270   51102.8912    0.1
  6275.287   52406.8986    0.1
  6275.305   53302.8928    0.1
  6275.322   54547.6206    0.1
  6275.340   55978.0170    0.1
  6275.357   56777.6614    0.1
  6275.374   57967.6036    0.1
  6275.392   59253.2475    0.1
  6275.409   60166.5177    0.1
  6275.427   61290.9690    0.1
  6275.444   62040.4287    0.1
  6275.461   62597.4324    0.1
  6275.479   63098.3359    0.1
  6275.496   63444.4118    0.1
  6275.514   63721.1075    0.1
  6275.531   63849.5797    0.1
  6275.549   64109.3750    0.1
  6275.566   64210.2742    0.1
  6275.583   64097.3799    0.1
  6275.601   64024.4644    0.1
  6275.618   63730.8262    0.1
  6275.636   63463.9837    0.1
  6275.653   63208.6125    0.1
  6275.670   62924.7895    0.1
  6275.688   62594.7291    0.1
  6275.705   62251.7619    0.1
  6275.723   62045.8337    0.1
  6275.740   61780.7386    0.1
  6275.757   61526.4148    0.1
  6275.775   61349.0675    0.1
  6275.792   61022.9563    0.1
  6275.810   60616.8402    0.1
  6275.827   60345.8798    0.1
  6275.845   60117.1567    0.1
  6275.862   59848.7104    0.1
  6275.879   59724.1310    0.1
  6275.897   59426.9359    0.1
  6275.914   59336.5209    0.1
  6275.932   59295.0042    0.1
  6275.949   59151.5084    0.1
  6275.966   58805.5393    0.1
  6275.984   58654.2400    0.1
  6276.001   58607.0639    0.1
  6276.019   58477.9582    0.1
  6276.036   58281.3248    0.1
  6276.053   57911.8596    0.1
  6276.071   57961.5785    0.1
  6276.088   57659.1003    0.1
  6276.106   57452.4038    0.1
  6276.123   57498.3325    0.1
  6276.141   57733.9336    0.1
  6276.158   57713.8250    0.1
  6276.175   57714.6143    0.1
  6276.193   57734.7495    0.1
  6276.210   57722.0982    0.1
  6276.228   57784.3308    0.1
  6276.245   57869.4286    0.1
  6276.262   57980.5184    0.1
  6276.280   58208.1663    0.1
  6276.297   58476.3252    0.1
  6276.315   58744.4203    0.1
  6276.332   58868.0041    0.1
  6276.349   59063.0771    0.1
  6276.367   59371.8823    0.1
  6276.384   59630.3457    0.1
  6276.402   59697.9972    0.1
  6276.419   59674.7182    0.1
  6276.437   59555.9501    0.1
  6276.454   59522.4875    0.1
  6276.471   59375.4953    0.1
  6276.489   59140.0345    0.1
  6276.506   58757.1061    0.1
  6276.524   58342.1706    0.1
  6276.541   57813.2290    0.1
  6276.558   57160.0987    0.1
  6276.576   56762.0872    0.1
  6276.593   56282.5279    0.1
  6276.611   55317.7372    0.1
  6276.628   55228.9498    0.1
  6276.645   54635.7468    0.1
  6276.663   54400.2428    0.1
  6276.680   54362.0133    0.1
  6276.698   54404.0459    0.1
  6276.715   54458.4218    0.1
  6276.732   54572.2756    0.1
  6276.750   54807.5692    0.1
  6276.767   55236.7274    0.1
  6276.785   55746.4576    0.1
  6276.802   56297.5718    0.1
  6276.820   57083.8523    0.1
  6276.837   57713.1111    0.1
  6276.854   58188.5601    0.1
  6276.872   58767.0564    0.1
  6276.889   59390.3929    0.1
  6276.907   59651.5231    0.1
  6276.924   60178.6106    0.1
  6276.941   60676.6945    0.1
  6276.959   60778.4877    0.1
  6276.976   60979.4069    0.1
  6276.994   61000.0962    0.1
  6277.011   61105.9703    0.1
  6277.028   61284.1768    0.1
  6277.046   61020.0074    0.1
  6277.063   60783.2402    0.1
  6277.081   60241.0247    0.1
  6277.098   59591.1932    0.1
  6277.116   57694.9649    0.1
  6277.133   55209.1940    0.1
  6277.150   52908.8213    0.1
  6277.168   50743.3407    0.1
  6277.185   50017.9724    0.1
  6277.203   51050.7000    0.1
  6277.220   53348.0829    0.1
  6277.237   55409.1379    0.1
  6277.255   57831.6625    0.1
  6277.272   59960.5923    0.1
  6277.290   60601.7294    0.1
  6277.307   60607.9617    0.1
  6277.324   59663.4727    0.1
  6277.342   57948.9958    0.1
  6277.359   55350.3732    0.1
  6277.377   53158.8150    0.1
  6277.394   52272.5944    0.1
  6277.412   52990.7179    0.1
  6277.429   54728.3823    0.1
  6277.446   56775.4144    0.1
  6277.464   57959.7430    0.1
  6277.481   57814.1145    0.1
  6277.499   57376.7445    0.1
  6277.516   56819.7710    0.1
  6277.533   56713.7107    0.1
  6277.551   56887.1953    0.1
  6277.568   57202.7418    0.1
  6277.586   57396.6771    0.1
  6277.603   57617.6046    0.1
  6277.620   57313.5026    0.1
  6277.638   56748.8353    0.1
  6277.655   56271.2400    0.1
  6277.673   56072.8761    0.1
  6277.690   55658.3887    0.1
  6277.708   55317.6665    0.1
  6277.725   55053.7060    0.1
  6277.742   54809.2997    0.1
  6277.760   54458.9714    0.1
  6277.777   54065.7296    0.1
  6277.795   53346.1273    0.1
  6277.812   52785.4228    0.1
  6277.829   50845.5796    0.1
  6277.847   48453.5607    0.1
  6277.864   45799.0646    0.1
  6277.882   43954.7210    0.1
  6277.899   44365.8737    0.1
  6277.916   46138.4582    0.1
  6277.934   48397.4918    0.1
  6277.951   49327.9146    0.1
  6277.969   49561.0050    0.1
  6277.986   48819.4279    0.1
  6278.004   48311.3145    0.1
  6278.021   48547.8785    0.1
  6278.038   49522.3616    0.1
  6278.056   51378.5445    0.1
  6278.073   53652.7708    0.1
  6278.091   55282.0787    0.1
  6278.108   57165.0050    0.1
  6278.125   58689.0487    0.1
  6278.143   58847.4917    0.1
  6278.160   58306.1335    0.1
  6278.178   56571.6526    0.1
  6278.195   55091.7897    0.1
  6278.212   54630.7415    0.1
  6278.230   55769.1195    0.1
  6278.247   58144.7249    0.1
  6278.265   61131.6266    0.1
  6278.282   63092.9055    0.1
  6278.300   64423.2458    0.1
  6278.317   64723.0529    0.1
  6278.334   64047.4064    0.1
  6278.352   63768.4093    0.1
  6278.369   63955.2592    0.1
  6278.387   64369.7472    0.1
  6278.404   65113.3097    0.1
  6278.421   65511.7900    0.1
  6278.439   65903.2706    0.1
  6278.456   65668.6427    0.1
  6278.474   65282.7486    0.1
  6278.491   64444.5102    0.1
  6278.508   63374.7458    0.1
  6278.526   62546.2204    0.1
  6278.543   60888.1792    0.1
  6278.561   59106.0380    0.1
  6278.578   57014.4247    0.1
  6278.595   53323.9172    0.1
  6278.613   49632.0137    0.1
  6278.630   45043.4194    0.1
  6278.648   40971.8484    0.1
  6278.665   39598.0684    0.1
  6278.683   40257.0210    0.1
  6278.700   42857.4868    0.1
  6278.717   46450.8916    0.1
  6278.735   51399.7361    0.1
  6278.752   55510.6080    0.1
  6278.770   58353.1624    0.1
  6278.787   60670.7708    0.1
  6278.804   61435.1290    0.1
  6278.822   62186.7858    0.1
  6278.839   62581.0577    0.1
  6278.857   62506.5000    0.1
  6278.874   62465.1685    0.1
  6278.891   62028.5441    0.1
  6278.909   61449.2474    0.1
  6278.926   60723.9154    0.1
  6278.944   60394.8230    0.1
  6278.961   60713.3502    0.1
  6278.979   61459.3920    0.1
  6278.996   62254.4264    0.1
  6279.013   63097.5831    0.1
  6279.031   63779.5506    0.1
  6279.048   64139.5488    0.1
  6279.066   64362.4602    0.1
  6279.083   64425.8262    0.1
  6279.100   64529.2551    0.1
  6279.118   64596.0569    0.1
  6279.135   64691.8244    0.1
  6279.153   65034.5448    0.1
  6279.170   65310.2263    0.1
  6279.187   65393.4105    0.1
  6279.205   65550.8531    0.1
  6279.222   65858.4308    0.1
  6279.240   65916.7234    0.1
  6279.257   66012.0369    0.1
  6279.275   65939.2581    0.1
  6279.292   65849.0868    0.1
  6279.309   65785.1179    0.1
  6279.327   65797.1541    0.1
  6279.344   65401.0623    0.1
  6279.362   64455.3335    0.1
  6279.379   63341.6039    0.1
  6279.396   60634.9862    0.1
  6279.414   56435.8619    0.1
  6279.431   53505.4102    0.1
  6279.449   51417.1258    0.1
  6279.466   51499.5089    0.1
  6279.483   53669.5714    0.1
  6279.501   57005.8134    0.1
  6279.518   59703.8843    0.1
  6279.536   61061.8262    0.1
  6279.553   61688.6630    0.1
  6279.571   61479.6536    0.1
  6279.588   60487.7882    0.1
  6279.605   58389.5036    0.1
  6279.623   55821.4416    0.1
  6279.640   51666.2174    0.1
  6279.658   47651.0402    0.1
  6279.675   46602.5596    0.1
  6279.692   47745.9583    0.1
  6279.710   51020.7901    0.1
  6279.727   54588.6304    0.1
  6279.745   58192.3070    0.1
  6279.762   59746.9408    0.1
  6279.779   60768.3519    0.1
  6279.797   61362.4294    0.1
  6279.814   61712.9558    0.1
  6279.832   62198.8112    0.1
  6279.849   62563.5088    0.1
  6279.867   62959.3529    0.1
  6279.884   63164.4873    0.1
  6279.901   63107.2504    0.1
  6279.919   63241.7080    0.1
  6279.936   63036.3042    0.1
  6279.954   62772.7279    0.1
  6279.971   62261.3615    0.1
  6279.988   61608.1901    0.1
  6280.006   60854.0046    0.1
  6280.023   60099.1976    0.1
  6280.041   58986.6170    0.1
  6280.058   58117.9530    0.1
  6280.075   57118.5679    0.1
  6280.093   56365.6384    0.1
  6280.110   55905.0735    0.1
  6280.128   55174.6888    0.1
  6280.145   54873.1042    0.1
  6280.163   54839.2467    0.1
  6280.180   54710.4070    0.1
  6280.197   54554.3926    0.1
  6280.215   54589.5252    0.1
  6280.232   54715.2251    0.1
  6280.250   54785.7467    0.1
  6280.267   54987.9018    0.1
  6280.284   55346.4466    0.1
  6280.302   55627.1454    0.1
  6280.319   55874.2175    0.1
  6280.337   56009.4464    0.1
  6280.354   56161.6259    0.1
  6280.371   56053.3199    0.1
  6280.389   55589.3608    0.1
  6280.406   54025.5210    0.1
  6280.424   51287.2079    0.1
  6280.441   48803.7847    0.1
  6280.458   46271.6157    0.1
  6280.476   45972.9365    0.1
  6280.493   47382.6422    0.1
  6280.511   50356.1143    0.1
  6280.528   53504.2957    0.1
  6280.546   55440.8797    0.1
  6280.563   56715.7944    0.1
  6280.580   56837.8894    0.1
  6280.598   56822.1425    0.1
  6280.615   56556.0416    0.1
  6280.633   56209.2817    0.1
  6280.650   55440.6705    0.1
  6280.667   54445.4156    0.1
  6280.685   53564.9979    0.1
  6280.702   52378.5319    0.1
  6280.720   51165.3729    0.1
  6280.737   50117.0870    0.1
  6280.754   48617.5161    0.1
  6280.772   47270.0139    0.1
  6280.789   45738.0971    0.1
  6280.807   44004.2889    0.1
  6280.824   42580.3734    0.1
  6280.842   40811.0846    0.1
  6280.859   38762.0954    0.1
  6280.876   37520.6726    0.1
  6280.894   35294.6362    0.1
  6280.911   32640.4723    0.1
  6280.929   30172.4525    0.1
  6280.946   27373.9195    0.1
  6280.963   25898.8662    0.1
  6280.981   25957.3524    0.1
  6280.998   27230.0427    0.1
  6281.016   28802.7994    0.1
  6281.033   30713.7012    0.1
  6281.050   32431.2742    0.1
  6281.068   33184.3682    0.1
  6281.085   34079.1801    0.1
  6281.103   34923.7069    0.1
  6281.120   35499.0828    0.1
  6281.138   36233.0034    0.1
  6281.155   37038.7508    0.1
  6281.172   37848.7746    0.1
  6281.190   39099.3986    0.1
  6281.207   40251.9168    0.1
  6281.225   41374.5730    0.1
  6281.242   42767.0822    0.1
  6281.259   43821.8302    0.1
  6281.277   45310.8826    0.1
  6281.294   47033.7437    0.1
  6281.312   48169.8249    0.1
  6281.329   49733.7427    0.1
  6281.346   51363.3591    0.1
  6281.364   52590.1646    0.1
  6281.381   54069.1121    0.1
  6281.399   55119.6468    0.1
  6281.416   56125.6400    0.1
  6281.434   57081.8401    0.1
  6281.451   57673.1416    0.1
  6281.468   58339.4705    0.1
  6281.486   58891.9963    0.1
  6281.503   59259.3850    0.1
  6281.521   59753.3861    0.1
  6281.538   60130.2593    0.1
  6281.555   60246.7402    0.1
  6281.573   60397.8727    0.1
  6281.590   60424.3676    0.1
  6281.608   60352.8615    0.1
  6281.625   60138.3173    0.1
  6281.642   59788.5153    0.1
  6281.660   59369.1238    0.1
  6281.677   58074.9828    0.1
  6281.695   56287.1493    0.1
  6281.712   53493.7641    0.1
  6281.730   50322.5591    0.1
  6281.747   48736.7238    0.1
  6281.764   49415.3336    0.1
  6281.782   52030.3597    0.1
  6281.799   54756.7627    0.1
  6281.817   58045.7195    0.1
  6281.834   60529.3150    0.1
  6281.851   61554.3969    0.1
  6281.869   62507.9933    0.1
  6281.886   63268.4258    0.1
  6281.904   63705.3278    0.1
  6281.921   64153.6972    0.1
  6281.938   64324.0396    0.1
  6281.956   64662.9175    0.1
  6281.973   65085.2719    0.1
  6281.991   65396.2220    0.1
  6282.008   65676.2145    0.1
  6282.026   65915.8275    0.1
  6282.043   65967.9278    0.1
  6282.060   66043.3970    0.1
  6282.078   66052.9649    0.1
  6282.095   65879.8589    0.1
  6282.113   65882.8456    0.1
  6282.130   65859.3908    0.1
  6282.147   65695.0308    0.1
  6282.165   65534.7720    0.1
  6282.182   65462.0709    0.1
  6282.200   65516.0786    0.1
  6282.217   65517.9934    0.1
  6282.234   65354.5694    0.1
  6282.252   65169.0173    0.1
  6282.269   65069.5892    0.1
  6282.287   64988.5460    0.1
  6282.304   64686.5622    0.1
  6282.322   64136.7499    0.1
  6282.339   63893.8282    0.1
  6282.356   63497.0928    0.1
  6282.374   63094.5286    0.1
  6282.391   62706.8591    0.1
  6282.409   62186.0725    0.1
  6282.426   61716.3708    0.1
  6282.443   60631.3054    0.1
  6282.461   58480.3976    0.1
  6282.478   56373.0711    0.1
  6282.496   52846.3596    0.1
  6282.513   49350.0840    0.1
  6282.530   48138.2159    0.1
  6282.548   48899.1049    0.1
  6282.565   51471.5890    0.1
  6282.583   53681.8083    0.1
  6282.600   56083.9596    0.1
  6282.617   57265.6903    0.1
  6282.635   57659.7918    0.1
  6282.652   57667.0555    0.1
  6282.670   57493.5979    0.1
  6282.687   57272.6710    0.1
  6282.705   57010.0164    0.1
  6282.722   56748.7808    0.1
  6282.739   56410.2190    0.1
  6282.757   56016.8212    0.1
  6282.774   55776.9673    0.1
  6282.792   55324.0460    0.1
  6282.809   55004.1792    0.1
  6282.826   54699.4304    0.1
  6282.844   54326.1311    0.1
  6282.861   53846.2532    0.1
  6282.879   53351.0397    0.1
  6282.896   52734.6929    0.1
  6282.913   52272.4395    0.1
  6282.931   51832.3244    0.1
  6282.948   51270.4989    0.1
  6282.966   50675.2796    0.1
  6282.983   50390.9014    0.1
  6283.001   50023.9516    0.1
  6283.018   49734.3330    0.1
  6283.035   49373.5843    0.1
  6283.053   49074.0711    0.1
  6283.070   49053.6684    0.1
  6283.088   49250.2067    0.1
  6283.105   49644.7294    0.1
  6283.122   49966.8699    0.1
  6283.140   50589.0172    0.1
  6283.157   51162.4186    0.1
  6283.175   51640.2400    0.1
  6283.192   52175.5359    0.1
  6283.209   52460.6284    0.1
  6283.227   52362.5952    0.1
  6283.244   51821.2179    0.1
  6283.262   50681.2107    0.1
  6283.279   49352.4994    0.1
  6283.297   49019.3725    0.1
  6283.314   50274.6073    0.1
  6283.331   53008.9073    0.1
  6283.349   56588.8611    0.1
  6283.366   59089.7386    0.1
  6283.384   61483.1317    0.1
  6283.401   63076.4755    0.1
  6283.418   64156.9648    0.1
  6283.436   65267.9295    0.1
  6283.453   66057.6397    0.1
  6283.471   66789.8891    0.1
  6283.488   67442.0056    0.1
  6283.505   67774.6727    0.1
  6283.523   67982.6049    0.1
  6283.540   68131.7807    0.1
  6283.558   67973.4542    0.1
  6283.575   68049.0797    0.1
  6283.593   68066.2466    0.1
  6283.610   67917.8451    0.1
  6283.627   67907.0668    0.1
  6283.645   67889.6499    0.1
  6283.662   67799.7845    0.1
  6283.680   67705.2886    0.1
  6283.697   67722.1263    0.1
  6283.714   67733.4136    0.1
  6283.732   67727.3997    0.1
  6283.749   67651.8244    0.1
  6283.767   67638.4564    0.1
  6283.784   67645.3185    0.1
  6283.801   67673.7310    0.1
  6283.819   67850.3081    0.1
  6283.836   68033.3769    0.1
  6283.854   68063.9700    0.1
  6283.871   68141.7833    0.1
  6283.889   68238.7535    0.1
  6283.906   68281.1733    0.1
  6283.923   68352.7367    0.1
  6283.941   68494.0837    0.1
  6283.958   68692.8979    0.1
  6283.976   68847.4742    0.1
  6283.993   68935.2733    0.1
  6284.010   69068.9878    0.1
  6284.028   69254.8266    0.1
  6284.045   69386.2490    0.1
  6284.063   69689.1690    0.1
  6284.080   69952.9162    0.1
  6284.097   70087.4653    0.1
  6284.115   70174.4187    0.1
  6284.132   70279.9788    0.1
  6284.150   70334.3807    0.1
  6284.167   70302.0046    0.1
  6284.185   70202.5314    0.1
  6284.202   70110.8010    0.1
  6284.219   69850.0631    0.1
  6284.237   69480.8374    0.1
  6284.254   69236.2720    0.1
  6284.272   68480.1534    0.1
  6284.289   67242.0785    0.1
  6284.306   65906.5687    0.1
  6284.324   63495.3896    0.1
  6284.341   60444.2272    0.1
  6284.359   58876.8527    0.1
  6284.376   58190.1483    0.1
  6284.393   59309.2231    0.1
  6284.411   60959.7062    0.1
  6284.428   63106.8646    0.1
  6284.446   64442.9836    0.1
  6284.463   65141.6343    0.1
  6284.480   65728.1129    0.1
  6284.498   65987.8215    0.1
  6284.515   66229.2990    0.1
  6284.533   66497.7659    0.1
  6284.550   66738.8407    0.1
  6284.568   67097.5717    0.1
  6284.585   67516.3410    0.1
  6284.602   67792.2679    0.1
  6284.620   68181.0704    0.1
  6284.637   68559.8095    0.1
  6284.655   68737.9686    0.1
  6284.672   69064.7173    0.1
  6284.689   69163.8702    0.1
  6284.707   69214.0987    0.1
  6284.724   69170.3400    0.1
  6284.742   69053.8032    0.1
  6284.759   68875.2272    0.1
  6284.776   68586.0611    0.1
  6284.794   68174.1830    0.1
  6284.811   67865.4027    0.1
  6284.829   67504.0975    0.1
  6284.846   67278.6656    0.1
  6284.864   66903.7050    0.1
  6284.881   66605.1974    0.1
  6284.898   66562.2654    0.1
  6284.916   66507.5803    0.1
  6284.933   66489.7613    0.1
  6284.951   66396.4438    0.1
  6284.968   66392.8383    0.1
  6284.985   66380.0525    0.1
  6285.003   66157.0695    0.1
  6285.020   65864.6028    0.1
  6285.038   65304.2097    0.1
  6285.055   64470.9398    0.1
  6285.072   62941.3714    0.1
  6285.090   61428.6779    0.1
  6285.107   60772.6540    0.1
  6285.125   60338.1335    0.1
  6285.142   60541.7799    0.1
  6285.160   60985.3602    0.1
  6285.177   61354.9221    0.1
  6285.194   61204.4076    0.1
  6285.212   60745.6869    0.1
  6285.229   60075.5744    0.1
  6285.247   59534.4846    0.1
  6285.264   58473.2222    0.1
  6285.281   57304.5775    0.1
  6285.299   56410.2100    0.1
  6285.316   55140.4292    0.1
  6285.334   53717.3378    0.1
  6285.351   52746.7587    0.1
  6285.368   51251.9100    0.1
  6285.386   49581.0288    0.1
  6285.403   48599.4247    0.1
  6285.421   47271.5559    0.1
  6285.438   46203.4581    0.1
  6285.456   45438.7175    0.1
  6285.473   44643.1040    0.1
  6285.490   44046.7319    0.1
  6285.508   43612.6328    0.1
  6285.525   43278.6311    0.1
  6285.543   43187.3996    0.1
  6285.560   43164.4513    0.1
  6285.577   43325.8624    0.1
  6285.595   43629.6500    0.1
  6285.612   44005.2350    0.1
  6285.630   44570.0978    0.1
  6285.647   45070.5982    0.1
  6285.664   45739.4484    0.1
  6285.682   46595.3420    0.1
  6285.699   47303.1421    0.1
  6285.717   48373.2435    0.1
  6285.734   49687.0769    0.1
  6285.752   50672.0115    0.1
  6285.769   52113.3404    0.1
  6285.786   53641.4578    0.1
  6285.804   54839.3022    0.1
  6285.821   56516.7336    0.1
  6285.839   58076.6147    0.1
  6285.856   59311.2963    0.1
  6285.873   60946.6206    0.1
  6285.891   62349.5373    0.1
  6285.908   63513.3148    0.1
  6285.926   64819.7335    0.1
  6285.943   65657.1817    0.1
  6285.960   66418.0471    0.1
  6285.978   67062.3520    0.1
  6285.995   67395.7935    0.1
  6286.013   67704.9359    0.1
  6286.030   67830.8828    0.1
  6286.048   67723.8800    0.1
  6286.065   67683.7671    0.1
  6286.082   67459.4875    0.1
  6286.100   67005.4173    0.1
  6286.117   66643.9835    0.1
  6286.135   66170.9630    0.1
  6286.152   65811.3855    0.1
  6286.169   65322.3555    0.1
  6286.187   64823.6200    0.1
  6286.204   64587.1844    0.1
  6286.222   64388.4803    0.1
  6286.239   64417.8781    0.1
  6286.256   64350.4212    0.1
  6286.274   64161.7685    0.1
  6286.291   64258.6951    0.1
  6286.309   64296.9771    0.1
  6286.326   64263.3124    0.1
  6286.344   64282.8644    0.1
  6286.361   64302.9021    0.1
  6286.378   64324.8557    0.1
  6286.396   64432.0891    0.1
  6286.413   64590.7137    0.1
  6286.431   64792.7186    0.1
  6286.448   64973.4835    0.1
  6286.465   64986.9601    0.1
  6286.483   64990.8291    0.1
  6286.500   64901.6394    0.1
  6286.518   65064.6976    0.1
  6286.535   65137.9990    0.1
  6286.552   65113.6350    0.1
  6286.570   65150.3729    0.1
  6286.587   65338.2925    0.1
  6286.605   65566.5770    0.1
  6286.622   65699.1497    0.1
  6286.639   65718.8523    0.1
  6286.657   65958.9963    0.1
  6286.674   66306.5352    0.1
  6286.692   66610.4032    0.1
  6286.709   66819.9143    0.1
  6286.727   67211.2854    0.1
  6286.744   67531.9844    0.1
  6286.761   67645.3559    0.1
  6286.779   67807.4087    0.1
  6286.796   68025.3165    0.1
  6286.814   68181.2104    0.1
  6286.831   68306.8124    0.1
  6286.848   68221.1184    0.1
  6286.866   68142.7993    0.1
  6286.883   68065.8939    0.1
  6286.901   68081.3392    0.1
  6286.918   68088.1813    0.1
  6286.935   68038.0286    0.1
  6286.953   67893.7155    0.1
  6286.970   67828.5845    0.1
  6286.988   67811.8732    0.1
  6287.005   67583.9143    0.1
  6287.023   67436.7089    0.1
  6287.040   67297.9429    0.1
  6287.057   66995.0946    0.1
  6287.075   66871.1479    0.1
  6287.092   66651.1499    0.1
  6287.110   66375.9406    0.1
  6287.127   66190.7194    0.1
  6287.144   66140.4486    0.1
  6287.162   66313.8557    0.1
  6287.179   66328.9676    0.1
  6287.197   66288.6238    0.1
  6287.214   66454.7325    0.1
  6287.231   66659.2491    0.1
  6287.249   66859.2045    0.1
  6287.266   67111.9007    0.1
  6287.284   67564.9532    0.1
  6287.301   67762.5540    0.1
  6287.319   68029.6056    0.1
  6287.336   68293.1656    0.1
  6287.353   68574.7963    0.1
  6287.371   68756.8896    0.1
  6287.388   68958.2816    0.1
  6287.406   69048.8117    0.1
  6287.423   69119.8904    0.1
  6287.440   69143.7517    0.1
  6287.458   69034.3653    0.1
  6287.475   68878.8049    0.1
  6287.493   68783.9398    0.1
  6287.510   68734.1376    0.1
  6287.527   68504.8373    0.1
  6287.545   68151.3459    0.1
  6287.562   67917.0297    0.1
  6287.580   67609.1107    0.1
  6287.597   67217.4264    0.1
  6287.615   67039.6221    0.1
  6287.632   66733.1131    0.1
  6287.649   66330.1784    0.1
  6287.667   66174.0493    0.1
  6287.684   65880.5106    0.1
  6287.702   65469.2400    0.1
  6287.719   65405.8453    0.1
  6287.736   65199.4431    0.1
  6287.754   65034.9662    0.1
  6287.771   64961.9101    0.1
  6287.789   64926.4018    0.1
  6287.806   64944.7727    0.1
  6287.823   64929.4803    0.1
  6287.841   64927.3801    0.1
  6287.858   65065.2149    0.1
  6287.876   65228.6018    0.1
  6287.893   65254.4382    0.1
  6287.911   65116.7897    0.1
  6287.928   65190.1554    0.1
  6287.945   65263.6539    0.1
  6287.963   65363.6223    0.1
  6287.980   65424.8342    0.1
  6287.998   65433.7351    0.1
  6288.015   65427.2877    0.1
  6288.032   65630.8744    0.1
  6288.050   65961.6408    0.1
  6288.067   66206.4821    0.1
  6288.085   66735.6208    0.1
  6288.102   67234.7018    0.1
  6288.119   67612.4367    0.1
  6288.137   68138.8783    0.1
  6288.154   68799.4315    0.1
  6288.172   69369.5362    0.1
  6288.189   69892.9989    0.1
  6288.207   70450.0485    0.1
  6288.224   70582.2130    0.1
  6288.241   70344.8866    0.1
  6288.259   69363.9689    0.1
  6288.276   68027.5172    0.1
  6288.294   65666.9402    0.1
  6288.311   63476.9660    0.1
  6288.328   63166.5468    0.1
  6288.346   63914.9812    0.1
  6288.363   65569.0989    0.1
  6288.381   66870.4324    0.1
  6288.398   68168.0271    0.1
  6288.415   68920.5274    0.1
  6288.433   68979.6261    0.1
  6288.450   69004.8480    0.1
  6288.468   68936.7582    0.1
  6288.485   68890.5559    0.1
  6288.502   68820.4210    0.1
  6288.520   68806.8464    0.1
  6288.537   68820.6480    0.1
  6288.555   69062.0110    0.1
  6288.572   69341.1360    0.1
  6288.590   69564.2858    0.1
  6288.607   69814.6543    0.1
  6288.624   70125.6100    0.1
  6288.642   70210.2604    0.1
  6288.659   70230.1922    0.1
  6288.677   70252.2546    0.1
  6288.694   70385.3580    0.1
  6288.711   70519.8659    0.1
  6288.729   70656.4085    0.1
  6288.746   70771.7920    0.1
  6288.764   70994.6318    0.1
  6288.781   71101.2657    0.1
  6288.798   71111.6582    0.1
  6288.816   71125.2373    0.1
  6288.833   71148.7225    0.1
  6288.851   71289.9527    0.1
  6288.868   71239.6576    0.1
  6288.886   71067.7093    0.1
  6288.903   71038.5080    0.1
  6288.920   71016.1363    0.1
  6288.938   70956.8180    0.1
  6288.955   70895.1595    0.1
  6288.973   70929.7246    0.1
  6288.990   70963.3410    0.1
  6289.007   70917.9703    0.1
  6289.025   70790.9444    0.1
  6289.042   70752.7923    0.1
  6289.060   70678.5929    0.1
  6289.077   70683.2201    0.1
  6289.094   70801.3286    0.1
  6289.112   70677.6721    0.1
  6289.129   70553.4882    0.1
  6289.147   70638.2540    0.1
  6289.164   70560.7705    0.1
  6289.182   70451.7670    0.1
  6289.199   70598.9855    0.1
  6289.216   70734.8465    0.1
  6289.234   70917.1126    0.1
  6289.251   71068.4301    0.1
  6289.269   71441.1309    0.1
  6289.286   71892.1284    0.1
  6289.303   71921.1738    0.1
  6289.321   72289.6046    0.1
  6289.338   72825.7013    0.1
  6289.356   73173.4506    0.1
  6289.373   73667.2365    0.1
  6289.390   74259.9296    0.1
  6289.408   74556.9005    0.1
  6289.425   75004.9731    0.1
  6289.443   75308.9833    0.1
  6289.460   75581.8954    0.1
  6289.478   75757.7653    0.1
  6289.495   75765.9207    0.1
  6289.512   75663.4602    0.1
  6289.530   75510.2473    0.1
  6289.547   75323.9140    0.1
  6289.565   75068.1798    0.1
  6289.582   74749.8641    0.1
  6289.599   74365.2564    0.1
  6289.617   74043.1259    0.1
  6289.634   73553.0277    0.1
  6289.652   73193.5074    0.1
  6289.669   72944.6487    0.1
  6289.686   72504.8539    0.1
  6289.704   72040.3255    0.1
  6289.721   71694.6457    0.1
  6289.739   71368.6612    0.1
  6289.756   71084.7408    0.1
  6289.774   70821.8255    0.1
  6289.791   70580.4534    0.1
  6289.808   70448.3701    0.1
  6289.826   70356.0519    0.1
  6289.843   70055.6547    0.1
  6289.861   69712.2357    0.1
  6289.878   69287.1291    0.1
  6289.895   68479.0140    0.1
  6289.913   67116.2857    0.1
  6289.930   65200.0817    0.1
  6289.948   62870.6168    0.1
  6289.965   61549.6158    0.1
  6289.982   61929.8933    0.1
  6290.000   64175.3251    0.1
  6290.017   66882.2615    0.1
  6290.035   69102.5605    0.1
  6290.052   71177.2215    0.1
  6290.070   71959.9792    0.1
  6290.087   72526.0509    0.1
  6290.104   72817.5015    0.1
  6290.122   72687.3577    0.1
  6290.139   72569.1178    0.1
  6290.157   72422.5481    0.1
  6290.174   72287.0829    0.1
  6290.191   72057.0000    0.1
  6290.209   71778.8367    0.1
  6290.226   71522.5199    0.1
  6290.244   71461.2637    0.1
  6290.261   71374.7825    0.1
  6290.278   71217.1872    0.1
  6290.296   71256.0583    0.1
  6290.313   71445.8685    0.1
  6290.331   71537.1485    0.1
  6290.348   71609.8902    0.1
  6290.365   71870.2452    0.1
  6290.383   71929.0078    0.1
  6290.400   72224.7153    0.1
  6290.418   72649.8027    0.1
  6290.435   72929.7910    0.1
  6290.453   73225.2264    0.1
  6290.470   73365.3341    0.1
  6290.487   73321.6537    0.1
  6290.505   73147.6889    0.1
  6290.522   72903.1863    0.1
  6290.540   72713.2332    0.1
  6290.557   72361.3522    0.1
  6290.574   71787.8523    0.1
  6290.592   71296.9885    0.1
  6290.609   70791.3278    0.1
  6290.627   70175.8224    0.1
  6290.644   69585.6116    0.1
  6290.661   69041.3917    0.1
  6290.679   68179.4232    0.1
  6290.696   67201.4849    0.1
  6290.714   65896.8875    0.1
  6290.731   63581.7479    0.1
  6290.749   60919.6201    0.1
  6290.766   57429.9802    0.1
  6290.783   53883.1832    0.1
  6290.801   53185.0805    0.1
  6290.818   54053.0133    0.1
  6290.836   56686.1173    0.1
  6290.853   58768.2212    0.1
  6290.870   60593.0980    0.1
  6290.888   61792.2315    0.1
  6290.905   61932.1074    0.1
  6290.923   61940.4094    0.1
  6290.940   61939.8157    0.1
  6290.957   61927.5692    0.1
  6290.975   61807.4899    0.1
  6290.992   61776.1442    0.1
  6291.010   61949.6970    0.1
  6291.027   62135.0292    0.1
  6291.045   62485.3583    0.1
  6291.062   62654.5107    0.1
  6291.079   62933.3980    0.1
  6291.097   63195.3200    0.1
  6291.114   63334.2566    0.1
  6291.132   63426.4467    0.1
  6291.149   63433.1198    0.1
  6291.166   63444.0590    0.1
  6291.184   63360.3426    0.1
  6291.201   63072.5841    0.1
  6291.219   62834.5464    0.1
  6291.236   62470.2295    0.1
  6291.253   61906.8564    0.1
  6291.271   61394.9711    0.1
  6291.288   61004.8658    0.1
  6291.306   60569.9549    0.1
  6291.323   60068.6470    0.1
  6291.341   59803.4465    0.1
  6291.358   59543.6296    0.1
  6291.375   59384.2695    0.1
  6291.393   59312.0508    0.1
  6291.410   59409.3990    0.1
  6291.428   59686.5201    0.1
  6291.445   60072.5143    0.1
  6291.462   60592.2394    0.1
  6291.480   61110.7509    0.1
  6291.497   61634.2000    0.1
  6291.515   62227.5819    0.1
  6291.532   62784.3319    0.1
  6291.549   63418.6361    0.1
  6291.567   64135.1640    0.1
  6291.584   64542.1928    0.1
  6291.602   65131.4554    0.1
  6291.619   65969.5258    0.1
  6291.637   66579.3559    0.1
  6291.654   67158.3231    0.1
  6291.671   67833.3063    0.1
  6291.689   68267.0198    0.1
  6291.706   68804.3836    0.1
  6291.724   69517.3580    0.1
  6291.741   70017.0115    0.1
  6291.758   70571.0806    0.1
  6291.776   71227.7014    0.1
  6291.793   71771.9085    0.1
  6291.811   72237.0143    0.1
  6291.828   72810.3200    0.1
  6291.845   73391.2151    0.1
  6291.863   73677.2728    0.1
  6291.880   74014.6909    0.1
  6291.898   74269.1367    0.1
  6291.915   74508.9665    0.1
  6291.933   74865.3042    0.1
  6291.950   74899.3807    0.1
  6291.967   74831.0093    0.1
  6291.985   74622.7176    0.1
  6292.002   74530.9749    0.1
  6292.020   74069.6372    0.1
  6292.037   73375.9509    0.1
  6292.054   72954.7847    0.1
  6292.072   72414.2984    0.1
  6292.089   71724.7293    0.1
  6292.107   71071.9997    0.1
  6292.124   70523.7048    0.1
  6292.141   69920.0692    0.1
  6292.159   69578.2570    0.1
  6292.176   69073.9985    0.1
  6292.194   68612.4332    0.1
  6292.211   68380.8812    0.1
  6292.229   68069.7128    0.1
  6292.246   67853.0854    0.1
  6292.263   67688.0215    0.1
  6292.281   67616.0281    0.1
  6292.298   67645.8624    0.1
  6292.316   67543.8098    0.1
  6292.333   67410.5780    0.1
  6292.350   67447.5517    0.1
  6292.368   67668.1492    0.1
  6292.385   67522.7762    0.1
  6292.403   67516.9476    0.1
  6292.420   67818.6706    0.1
  6292.437   68043.1938    0.1
  6292.455   68312.6239    0.1
  6292.472   68519.0201    0.1
  6292.490   68784.4112    0.1
  6292.507   69178.8342    0.1
  6292.524   69554.4366    0.1
  6292.542   69772.9632    0.1
  6292.559   70098.5163    0.1
  6292.577   70457.0149    0.1
  6292.594   70721.0172    0.1
  6292.612   70960.6160    0.1
  6292.629   70868.8097    0.1
  6292.646   70505.4807    0.1
  6292.664   69133.1019    0.1
  6292.681   66698.6656    0.1
  6292.699   63669.7470    0.1
  6292.716   59829.4523    0.1
  6292.733   57622.3384    0.1
  6292.751   58131.6787    0.1
  6292.768   60320.3128    0.1
  6292.786   63523.1304    0.1
  6292.803   65513.8842    0.1
  6292.820   66930.3497    0.1
  6292.838   66935.3664    0.1
  6292.855   66504.0363    0.1
  6292.873   65478.7278    0.1
  6292.890   64125.6983    0.1
  6292.908   63162.3439    0.1
  6292.925   61508.5807    0.1
  6292.942   59848.2979    0.1
  6292.960   58645.2777    0.1
  6292.977   56865.3940    0.1
  6292.995   54911.2810    0.1
  6293.012   53637.6740    0.1
  6293.029   51951.0012    0.1
  6293.047   50132.0953    0.1
  6293.064   48917.1778    0.1
  6293.082   47528.2900    0.1
  6293.099   46075.6109    0.1
  6293.116   45201.5345    0.1
  6293.134   44247.2427    0.1
  6293.151   43248.9931    0.1
  6293.169   42615.0659    0.1
  6293.186   42111.4315    0.1
  6293.204   41984.5069    0.1
  6293.221   41992.2745    0.1
  6293.238   42192.1905    0.1
  6293.256   42464.7934    0.1
  6293.273   42535.0768    0.1
  6293.291   42880.2772    0.1
  6293.308   43456.8867    0.1
  6293.325   43924.6663    0.1
  6293.343   44468.8938    0.1
  6293.360   45159.7635    0.1
  6293.378   45801.0030    0.1
  6293.395   46523.9869    0.1
  6293.412   47372.3096    0.1
  6293.430   48009.0561    0.1
  6293.447   48298.5174    0.1
  6293.465   48009.0218    0.1
  6293.482   46705.7754    0.1
  6293.500   44743.7447    0.1
  6293.517   42881.6227    0.1
  6293.534   43018.9110    0.1
  6293.552   44885.8939    0.1
  6293.569   49073.7972    0.1
  6293.587   53378.8098    0.1
  6293.604   56587.7948    0.1
  6293.621   59419.1564    0.1
  6293.639   60917.4652    0.1
  6293.656   61999.6184    0.1
  6293.674   63002.4991    0.1
  6293.691   63680.4837    0.1
  6293.708   64366.8705    0.1
  6293.726   64886.1674    0.1
  6293.743   65389.0455    0.1
  6293.761   65751.6930    0.1
  6293.778   66351.4646    0.1
  6293.796   66958.1669    0.1
  6293.813   67153.5977    0.1
  6293.830   67321.9217    0.1
  6293.848   67860.2000    0.1
  6293.865   68116.0577    0.1
  6293.883   68557.8102    0.1
  6293.900   68972.3472    0.1
  6293.917   69254.5963    0.1
  6293.935   69499.4131    0.1
  6293.952   69589.5608    0.1
  6293.970   69824.2028    0.1
  6293.987   69956.6962    0.1
  6294.004   69913.6930    0.1
  6294.022   69853.9100    0.1
  6294.039   69991.7194    0.1
  6294.057   69949.8441    0.1
  6294.074   69790.9795    0.1
  6294.092   69805.9571    0.1
  6294.109   69778.5335    0.1
  6294.126   69565.8975    0.1
  6294.144   69292.4311    0.1
  6294.161   69160.9305    0.1
  6294.179   69074.9264    0.1
  6294.196   68991.3415    0.1
  6294.213   68594.7094    0.1
  6294.231   68197.1394    0.1
  6294.248   68009.6003    0.1
  6294.266   67708.7225    0.1
  6294.283   67301.6813    0.1
  6294.300   67119.7603    0.1
  6294.318   66874.0468    0.1
  6294.335   66591.0414    0.1
  6294.353   66580.6596    0.1
  6294.370   66586.0262    0.1
  6294.387   66811.3858    0.1
  6294.405   66978.0865    0.1
  6294.422   67253.9724    0.1
  6294.440   67603.8536    0.1
  6294.457   67785.2483    0.1
  6294.475   68141.6105    0.1
  6294.492   68689.9596    0.1
  6294.509   69077.5188    0.1
  6294.527   69473.9290    0.1
  6294.544   69896.3663    0.1
  6294.562   70140.2330    0.1
  6294.579   70584.8428    0.1
  6294.596   71085.5049    0.1
  6294.614   71228.5057    0.1
  6294.631   71329.6329    0.1
  6294.649   71583.5883    0.1
  6294.666   71785.7335    0.1
  6294.683   72032.1229    0.1
  6294.701   72506.7286    0.1
  6294.718   72795.0850    0.1
  6294.736   72906.0423    0.1
  6294.753   73065.4958    0.1
  6294.771   73304.3041    0.1
  6294.788   73436.5384    0.1
  6294.805   73600.1758    0.1
  6294.823   73827.8539    0.1
  6294.840   73962.3313    0.1
  6294.858   73883.8885    0.1
  6294.875   73792.6612    0.1
  6294.892   73850.1650    0.1
  6294.910   73938.3435    0.1
  6294.927   73876.4354    0.1
  6294.945   73763.1682    0.1
  6294.962   73600.3004    0.1
  6294.979   73463.5440    0.1
  6294.997   73434.2666    0.1
  6295.014   73172.1581    0.1
  6295.032   72746.0517    0.1
  6295.049   72511.9683    0.1
  6295.067   72249.8245    0.1
  6295.084   71874.5767    0.1
  6295.101   71446.3567    0.1
  6295.119   70948.8166    0.1
  6295.136   70349.5491    0.1
  6295.154   70142.2418    0.1
  6295.171   69407.8582    0.1
  6295.188   68545.0032    0.1
  6295.206   68032.9996    0.1
  6295.223   67340.2141    0.1
  6295.241   66664.2042    0.1
  6295.258   66263.6272    0.1
  6295.275   65904.6174    0.1
  6295.293   65449.3517    0.1
  6295.310   64985.9496    0.1
  6295.328   64635.2611    0.1
  6295.345   64169.4334    0.1
  6295.363   63576.8404    0.1
  6295.380   63094.8025    0.1
  6295.397   62449.5194    0.1
  6295.415   61727.6912    0.1
  6295.432   60997.0302    0.1
  6295.450   60047.3004    0.1
  6295.467   59119.8590    0.1
  6295.484   58224.6621    0.1
  6295.502   57071.6017    0.1
  6295.519   55953.2101    0.1
  6295.537   54991.4352    0.1
  6295.554   53909.2067    0.1
  6295.571   52880.4649    0.1
  6295.589   52242.0192    0.1
  6295.606   51533.9806    0.1
  6295.624   50946.8833    0.1
  6295.641   50665.3945    0.1
  6295.659   50218.4309    0.1
  6295.676   49351.4924    0.1
  6295.693   48392.2470    0.1
  6295.711   46400.3745    0.1
  6295.728   43853.3598    0.1
  6295.746   42916.2158    0.1
  6295.763   43800.0072    0.1
  6295.780   46937.5249    0.1
  6295.798   50795.4181    0.1
  6295.815   54494.8894    0.1
  6295.833   58181.0436    0.1
  6295.850   60291.5689    0.1
  6295.867   61761.2808    0.1
  6295.885   63193.6190    0.1
  6295.902   64288.7518    0.1
  6295.920   65069.6419    0.1
  6295.937   65901.3482    0.1
  6295.955   66530.2291    0.1
  6295.972   66961.0237    0.1
  6295.989   67433.8044    0.1
  6296.007   67728.6221    0.1
  6296.024   67909.7523    0.1
  6296.042   67930.9494    0.1
  6296.059   67501.6991    0.1
  6296.076   67735.6240    0.1
  6296.094   67451.3032    0.1
  6296.111   67138.3656    0.1
  6296.129   66742.5211    0.1
  6296.146   66614.4692    0.1
  6296.163   66234.1782    0.1
  6296.181   65884.4888    0.1
  6296.198   65617.3773    0.1
  6296.216   65144.5708    0.1
  6296.233   64587.3267    0.1
  6296.251   64161.2965    0.1
  6296.268   63635.2816    0.1
  6296.285   63228.9645    0.1
  6296.303   63011.6163    0.1
  6296.320   62345.5703    0.1
  6296.338   61617.1654    0.1
  6296.355   61343.8955    0.1
  6296.372   60998.3346    0.1
  6296.390   60729.9354    0.1
  6296.407   60535.5579    0.1
  6296.425   59972.0959    0.1
  6296.442   58941.2183    0.1
  6296.459   57740.5578    0.1
  6296.477   55171.4723    0.1
  6296.494   51045.7314    0.1
  6296.512   47550.1458    0.1
  6296.529   45160.5825    0.1
  6296.546   44946.3027    0.1
  6296.564   46838.4369    0.1
  6296.581   49822.9193    0.1
  6296.599   52954.2424    0.1
  6296.616   54429.3745    0.1
  6296.634   54662.2118    0.1
  6296.651   54360.4206    0.1
  6296.668   53402.5618    0.1
  6296.686   52413.9016    0.1
  6296.703   50820.2473    0.1
  6296.721   49185.0110    0.1
  6296.738   47944.3795    0.1
  6296.755   46314.2458    0.1
  6296.773   44642.3441    0.1
  6296.790   43566.2932    0.1
  6296.808   42121.2348    0.1
  6296.825   40749.5278    0.1
  6296.842   39995.2829    0.1
  6296.860   39013.9610    0.1
  6296.877   37995.7659    0.1
  6296.895   37381.8563    0.1
  6296.912   36859.9765    0.1
  6296.930   36224.1044    0.1
  6296.947   35852.2416    0.1
  6296.964   35505.8841    0.1
  6296.982   35218.7721    0.1
  6296.999   35129.6799    0.1
  6297.017   35185.0077    0.1
  6297.034   35376.2164    0.1
  6297.051   35671.1839    0.1
  6297.069   36118.3255    0.1
  6297.086   36909.3148    0.1
  6297.104   38028.6078    0.1
  6297.121   38891.3848    0.1
  6297.138   40100.5122    0.1
  6297.156   41790.5066    0.1
  6297.173   42856.7345    0.1
  6297.191   44473.2539    0.1
  6297.208   46419.7436    0.1
  6297.226   47801.2554    0.1
  6297.243   49561.2290    0.1
  6297.260   51603.9865    0.1
  6297.278   53341.7394    0.1
  6297.295   55155.4116    0.1
  6297.313   57317.4946    0.1
  6297.330   58462.0156    0.1
  6297.347   59884.5645    0.1
  6297.365   61436.4836    0.1
  6297.382   62704.7246    0.1
  6297.400   63775.6770    0.1
  6297.417   64788.3296    0.1
  6297.434   65423.5048    0.1
  6297.452   65990.2185    0.1
  6297.469   66438.2479    0.1
  6297.487   67014.7193    0.1
  6297.504   67689.1581    0.1
  6297.522   67881.5548    0.1
  6297.539   67999.1015    0.1
  6297.556   68099.4527    0.1
  6297.574   68398.7599    0.1
  6297.591   68403.0625    0.1
  6297.609   68551.8096    0.1
  6297.626   68548.2060    0.1
  6297.643   68417.0161    0.1
  6297.661   68177.3808    0.1
  6297.678   68068.4539    0.1
  6297.696   67873.7564    0.1
  6297.713   67711.2996    0.1
  6297.730   67561.2466    0.1
  6297.748   67284.8956    0.1
  6297.765   66894.6733    0.1
  6297.783   66608.9167    0.1
  6297.800   66015.8324    0.1
  6297.818   65262.2592    0.1
  6297.835   64663.0168    0.1
  6297.852   64034.2226    0.1
  6297.870   63277.4677    0.1
  6297.887   62591.0616    0.1
  6297.905   61813.9701    0.1
  6297.922   60782.0891    0.1
  6297.939   59827.1765    0.1
  6297.957   58575.4034    0.1
  6297.974   56985.6737    0.1
  6297.992   55595.3097    0.1
  6298.009   54245.3757    0.1
  6298.026   52538.0411    0.1
  6298.044   50950.3346    0.1
  6298.061   49677.4925    0.1
  6298.079   48307.1480    0.1
  6298.096   46985.4375    0.1
  6298.114   46052.1633    0.1
  6298.131   45276.7624    0.1
  6298.148   44453.4984    0.1
  6298.166   44097.4857    0.1
  6298.183   43537.1365    0.1
  6298.201   43258.2239    0.1
  6298.218   43136.1331    0.1
  6298.235   43335.7234    0.1
  6298.253   43564.9163    0.1
  6298.270   43881.7422    0.1
  6298.288   44353.9925    0.1
  6298.305   45220.2922    0.1
  6298.322   45981.2036    0.1
  6298.340   46514.1820    0.1
  6298.357   47482.1837    0.1
  6298.375   48564.4139    0.1
  6298.392   49286.0416    0.1
  6298.409   50438.6581    0.1
  6298.427   51825.8156    0.1
  6298.444   52704.8480    0.1
  6298.462   53806.6843    0.1
  6298.479   55308.6764    0.1
  6298.497   56488.0158    0.1
  6298.514   57436.5731    0.1
  6298.531   59075.4840    0.1
  6298.549   60271.8378    0.1
  6298.566   61772.3787    0.1
  6298.584   63075.5756    0.1
  6298.601   64098.8717    0.1
  6298.618   65011.4466    0.1
  6298.636   65893.9228    0.1
  6298.653   66676.0901    0.1
  6298.671   67152.5931    0.1
  6298.688   67602.7954    0.1
  6298.705   67855.4293    0.1
  6298.723   67792.9440    0.1
  6298.740   68023.8265    0.1
  6298.758   68262.9107    0.1
  6298.775   68199.1180    0.1
  6298.793   67974.0624    0.1
  6298.810   68027.9482    0.1
  6298.827   67963.4827    0.1
  6298.845   68163.9654    0.1
  6298.862   68261.5703    0.1
  6298.880   68217.7085    0.1
  6298.897   68543.7614    0.1
  6298.914   68561.1964    0.1
  6298.932   68114.1772    0.1
  6298.949   67564.5148    0.1
  6298.967   65999.2362    0.1
  6298.984   62664.8083    0.1
  6299.001   59302.6723    0.1
  6299.019   56525.4467    0.1
  6299.036   55622.0756    0.1
  6299.054   57684.3153    0.1
  6299.071   60995.5757    0.1
  6299.089   65025.9518    0.1
  6299.106   67900.7950    0.1
  6299.123   69222.0951    0.1
  6299.141   69864.0748    0.1
  6299.158   70057.0894    0.1
  6299.176   70078.6071    0.1
  6299.193   70170.4379    0.1
  6299.210   70243.7677    0.1
  6299.228   70074.9511    0.1
  6299.245   70302.4461    0.1
  6299.263   70159.3767    0.1
  6299.280   70017.3087    0.1
  6299.297   69779.8286    0.1
  6299.315   69872.0179    0.1
  6299.332   69859.8793    0.1
  6299.350   69872.4202    0.1
  6299.367   69513.2365    0.1
  6299.385   69421.9088    0.1
  6299.402   69358.3693    0.1
  6299.419   69057.0677    0.1
  6299.437   68859.6181    0.1
  6299.454   68788.3082    0.1
  6299.472   68658.8437    0.1
  6299.489   68441.6528    0.1
  6299.506   68181.9099    0.1
  6299.524   68013.3650    0.1
  6299.541   67907.7148    0.1
  6299.559   67479.9188    0.1
  6299.576   67550.0650    0.1
  6299.593   67539.2855    0.1
  6299.611   67688.6947    0.1
  6299.628   67567.2368    0.1
  6299.646   67567.7562    0.1
  6299.663   67624.4191    0.1
  6299.681   67446.9807    0.1
  6299.698   67057.2569    0.1
  6299.715   66127.3159    0.1
  6299.733   64814.4746    0.1
  6299.750   62263.7005    0.1
  6299.768   57871.8851    0.1
  6299.785   54048.5425    0.1
  6299.802   52021.4767    0.1
  6299.820   52862.0105    0.1
  6299.837   56077.6410    0.1
  6299.855   59161.2627    0.1
  6299.872   62266.7674    0.1
  6299.889   64353.2822    0.1
  6299.907   64852.1254    0.1
  6299.924   64941.7075    0.1
  6299.942   64932.8830    0.1
  6299.959   64894.3002    0.1
  6299.977   64618.6790    0.1
