#  wavelength    Flux         Std.Dev.
#  [Angstroem]   [F(5500)]    [N/A]

  6250.025   740.4506    0.1
  6250.042   737.4123    0.1
  6250.060   735.4034    0.1
  6250.077   731.6743    0.1
  6250.094   727.8142    0.1
  6250.112   727.0104    0.1
  6250.129   725.0774    0.1
  6250.147   723.3344    0.1
  6250.164   722.8838    0.1
  6250.181   723.4203    0.1
  6250.199   725.3097    0.1
  6250.216   726.1288    0.1
  6250.234   727.9161    0.1
  6250.251   732.8159    0.1
  6250.268   735.3654    0.1
  6250.286   737.5016    0.1
  6250.303   741.5439    0.1
  6250.321   744.5159    0.1
  6250.338   745.6696    0.1
  6250.355   751.3370    0.1
  6250.373   756.6534    0.1
  6250.390   757.0639    0.1
  6250.408   761.8022    0.1
  6250.425   764.9701    0.1
  6250.442   766.4829    0.1
  6250.460   768.7058    0.1
  6250.477   768.5164    0.1
  6250.495   769.7009    0.1
  6250.512   771.0404    0.1
  6250.529   772.1865    0.1
  6250.547   775.9501    0.1
  6250.564   776.1398    0.1
  6250.582   776.0540    0.1
  6250.599   777.4109    0.1
  6250.616   779.0680    0.1
  6250.634   778.8181    0.1
  6250.651   778.7777    0.1
  6250.669   779.9725    0.1
  6250.686   780.5478    0.1
  6250.703   780.6339    0.1
  6250.721   779.9291    0.1
  6250.738   778.6656    0.1
  6250.756   776.7394    0.1
  6250.773   775.1442    0.1
  6250.790   774.3324    0.1
  6250.808   771.8052    0.1
  6250.825   767.2625    0.1
  6250.843   764.1886    0.1
  6250.860   761.4808    0.1
  6250.877   756.7251    0.1
  6250.895   751.9602    0.1
  6250.912   747.9053    0.1
  6250.930   746.1505    0.1
  6250.947   744.8815    0.1
  6250.964   741.5649    0.1
  6250.982   740.9564    0.1
  6250.999   742.0747    0.1
  6251.017   742.0863    0.1
  6251.034   741.5044    0.1
  6251.051   741.8894    0.1
  6251.069   743.5350    0.1
  6251.086   745.9138    0.1
  6251.104   748.2193    0.1
  6251.121   752.5919    0.1
  6251.138   754.7555    0.1
  6251.156   755.9757    0.1
  6251.173   756.1541    0.1
  6251.191   756.3920    0.1
  6251.208   757.3017    0.1
  6251.225   756.9224    0.1
  6251.243   755.4002    0.1
  6251.260   751.8546    0.1
  6251.278   744.3400    0.1
  6251.295   735.5606    0.1
  6251.312   728.7618    0.1
  6251.330   716.5175    0.1
  6251.347   700.6152    0.1
  6251.365   685.0911    0.1
  6251.382   667.2462    0.1
  6251.399   647.4626    0.1
  6251.417   622.0167    0.1
  6251.434   602.0515    0.1
  6251.452   584.2043    0.1
  6251.469   564.2684    0.1
  6251.486   546.9829    0.1
  6251.504   535.3412    0.1
  6251.521   528.3801    0.1
  6251.539   524.2805    0.1
  6251.556   527.6579    0.1
  6251.573   536.4061    0.1
  6251.591   549.3321    0.1
  6251.608   563.6891    0.1
  6251.626   587.8657    0.1
  6251.643   611.0324    0.1
  6251.660   631.7070    0.1
  6251.678   653.0957    0.1
  6251.695   677.1250    0.1
  6251.713   694.1826    0.1
  6251.730   696.0972    0.1
  6251.747   695.0276    0.1
  6251.765   718.5704    0.1
  6251.782   742.4476    0.1
  6251.800   754.9075    0.1
  6251.817   761.6549    0.1
  6251.834   765.7939    0.1
  6251.852   767.9938    0.1
  6251.869   767.5697    0.1
  6251.887   765.2632    0.1
  6251.904   762.5238    0.1
  6251.921   755.3267    0.1
  6251.939   748.6750    0.1
  6251.956   741.3509    0.1
  6251.973   729.5540    0.1
  6251.991   714.5996    0.1
  6252.008   695.6264    0.1
  6252.026   676.9064    0.1
  6252.043   653.0130    0.1
  6252.060   625.1587    0.1
  6252.078   595.5996    0.1
  6252.095   564.7294    0.1
  6252.113   533.3744    0.1
  6252.130   492.7741    0.1
  6252.147   456.7203    0.1
  6252.165   421.0969    0.1
  6252.182   389.5556    0.1
  6252.200   358.2146    0.1
  6252.217   329.5171    0.1
  6252.234   311.6517    0.1
  6252.252   300.6917    0.1
  6252.269   294.7846    0.1
  6252.287   295.4207    0.1
  6252.304   306.1197    0.1
  6252.321   321.8277    0.1
  6252.339   343.3953    0.1
  6252.356   373.5075    0.1
  6252.374   406.9504    0.1
  6252.391   438.4717    0.1
  6252.408   470.7389    0.1
  6252.426   511.4794    0.1
  6252.443   546.0235    0.1
  6252.461   579.6582    0.1
  6252.478   608.6527    0.1
  6252.495   638.8853    0.1
  6252.513   666.1493    0.1
  6252.530   687.6757    0.1
  6252.548   706.4998    0.1
  6252.565   719.9548    0.1
  6252.582   735.6507    0.1
  6252.600   747.2377    0.1
  6252.617   755.2208    0.1
  6252.635   759.8861    0.1
  6252.652   765.1024    0.1
  6252.669   768.3485    0.1
  6252.687   769.9877    0.1
  6252.704   772.1734    0.1
  6252.722   775.5146    0.1
  6252.739   778.5688    0.1
  6252.756   779.5933    0.1
  6252.774   778.8356    0.1
  6252.791   777.8105    0.1
  6252.809   777.8798    0.1
  6252.826   779.1586    0.1
  6252.843   780.0735    0.1
  6252.861   780.8317    0.1
  6252.878   779.4308    0.1
  6252.896   777.6446    0.1
  6252.913   777.1511    0.1
  6252.930   777.6654    0.1
  6252.948   777.0044    0.1
  6252.965   777.2588    0.1
  6252.983   777.3044    0.1
  6253.000   775.5905    0.1
  6253.017   771.2291    0.1
  6253.035   769.5327    0.1
  6253.052   768.2943    0.1
  6253.070   765.0386    0.1
  6253.087   762.0818    0.1
  6253.104   759.6038    0.1
  6253.122   755.8664    0.1
  6253.139   752.2258    0.1
  6253.157   751.2045    0.1
  6253.174   746.3899    0.1
  6253.191   743.3130    0.1
  6253.209   743.3112    0.1
  6253.226   741.7320    0.1
  6253.244   739.7420    0.1
  6253.261   738.0601    0.1
  6253.278   736.7658    0.1
  6253.296   735.2247    0.1
  6253.313   734.0386    0.1
  6253.331   731.1274    0.1
  6253.348   727.0781    0.1
  6253.365   723.1089    0.1
  6253.383   714.5672    0.1
  6253.400   706.5816    0.1
  6253.418   698.7297    0.1
  6253.435   690.1001    0.1
  6253.452   680.9263    0.1
  6253.470   671.0531    0.1
  6253.487   661.4906    0.1
  6253.505   652.6369    0.1
  6253.522   646.9229    0.1
  6253.539   644.0818    0.1
  6253.557   642.3928    0.1
  6253.574   641.5802    0.1
  6253.592   642.5488    0.1
  6253.609   646.6205    0.1
  6253.626   650.4655    0.1
  6253.644   653.0150    0.1
  6253.661   654.3654    0.1
  6253.679   652.0301    0.1
  6253.696   647.1936    0.1
  6253.713   638.8796    0.1
  6253.731   627.8116    0.1
  6253.748   613.5790    0.1
  6253.766   587.1908    0.1
  6253.783   562.8863    0.1
  6253.800   533.5725    0.1
  6253.818   506.2519    0.1
  6253.835   472.3247    0.1
  6253.853   437.7843    0.1
  6253.870   409.3404    0.1
  6253.887   382.2632    0.1
  6253.905   360.0289    0.1
  6253.922   339.8325    0.1
  6253.940   329.8731    0.1
  6253.957   326.6546    0.1
  6253.974   328.9829    0.1
  6253.992   339.0968    0.1
  6254.009   358.8983    0.1
  6254.027   380.3577    0.1
  6254.044   404.4725    0.1
  6254.061   436.9200    0.1
  6254.079   468.7265    0.1
  6254.096   502.5574    0.1
  6254.114   533.4091    0.1
  6254.131   566.5696    0.1
  6254.148   600.9244    0.1
  6254.166   628.4617    0.1
  6254.183   652.4708    0.1
  6254.200   671.9219    0.1
  6254.218   695.0532    0.1
  6254.235   711.2504    0.1
  6254.253   724.8327    0.1
  6254.270   735.4378    0.1
  6254.287   739.3659    0.1
  6254.305   746.0144    0.1
  6254.322   749.6130    0.1
  6254.340   749.7792    0.1
  6254.357   749.7760    0.1
  6254.374   750.8104    0.1
  6254.392   749.8691    0.1
  6254.409   747.5598    0.1
  6254.427   744.5571    0.1
  6254.444   741.5663    0.1
  6254.461   740.7933    0.1
  6254.479   738.1184    0.1
  6254.496   735.1840    0.1
  6254.514   735.2223    0.1
  6254.531   732.3474    0.1
  6254.548   729.7386    0.1
  6254.566   728.6706    0.1
  6254.583   728.5815    0.1
  6254.601   729.4569    0.1
  6254.618   729.4542    0.1
  6254.635   727.6554    0.1
  6254.653   725.8620    0.1
  6254.670   727.1830    0.1
  6254.688   728.2405    0.1
  6254.705   729.0267    0.1
  6254.722   730.3332    0.1
  6254.740   730.8236    0.1
  6254.757   732.1716    0.1
  6254.775   735.0482    0.1
  6254.792   737.9734    0.1
  6254.809   739.9942    0.1
  6254.827   742.3906    0.1
  6254.844   745.3782    0.1
  6254.862   748.7035    0.1
  6254.879   752.0685    0.1
  6254.896   756.1580    0.1
  6254.914   757.4870    0.1
  6254.931   759.0421    0.1
  6254.949   760.3376    0.1
  6254.966   760.9493    0.1
