#  wavelength    Flux         Std.Dev.
#  [Angstroem]   [F(5500)]    [N/A]

  6250.025   740.4506    0.1
  6250.042   737.4123    0.1
  6250.060   735.4034    0.1
  6250.077   731.6743    0.1
  6250.094   727.8142    0.1
  6250.112   727.0104    0.1
  6250.129   725.0774    0.1
  6250.147   723.3344    0.1
  6250.164   722.8838    0.1
  6250.181   723.4203    0.1
  6250.199   725.3097    0.1
  6250.216   726.1288    0.1
  6250.234   727.9161    0.1
  6250.251   732.8159    0.1
  6250.268   735.3654    0.1
  6250.286   737.5016    0.1
  6250.303   741.5439    0.1
  6250.321   744.5159    0.1
  6250.338   745.6696    0.1
  6250.355   751.3370    0.1
  6250.373   756.6534    0.1
  6250.390   757.0639    0.1
  6250.408   761.8022    0.1
  6250.425   764.9701    0.1
  6250.442   766.4829    0.1
  6250.460   768.7058    0.1
  6250.477   768.5164    0.1
  6250.495   769.7009    0.1
  6250.512   771.0404    0.1
  6250.529   772.1865    0.1
  6250.547   775.9501    0.1
  6250.564   776.1398    0.1
  6250.582   776.0540    0.1
  6250.599   777.4109    0.1
  6250.616   779.0680    0.1
  6250.634   778.8181    0.1
  6250.651   778.7777    0.1
  6250.669   779.9725    0.1
  6250.686   780.5478    0.1
  6250.703   780.6339    0.1
  6250.721   779.9291    0.1
  6250.738   778.6656    0.1
  6250.756   776.7394    0.1
  6250.773   775.1442    0.1
  6250.790   774.3324    0.1
  6250.808   771.8052    0.1
  6250.825   767.2625    0.1
  6250.843   764.1886    0.1
  6250.860   761.4808    0.1
  6250.877   756.7251    0.1
  6250.895   751.9602    0.1
  6250.912   747.9053    0.1
  6250.930   746.1505    0.1
  6250.947   744.8815    0.1
  6250.964   741.5649    0.1
  6250.982   740.9564    0.1
  6250.999   742.0747    0.1
  6251.017   742.0863    0.1
  6251.034   741.5044    0.1
  6251.051   741.8894    0.1
  6251.069   743.5350    0.1
  6251.086   745.9138    0.1
  6251.104   748.2193    0.1
  6251.121   752.5919    0.1
  6251.138   754.7555    0.1
  6251.156   755.9757    0.1
  6251.173   756.1541    0.1
  6251.191   756.3920    0.1
  6251.208   757.3017    0.1
  6251.225   756.9224    0.1
  6251.243   755.4002    0.1
  6251.260   751.8546    0.1
  6251.278   744.3400    0.1
  6251.295   735.5606    0.1
  6251.312   728.7618    0.1
  6251.330   716.5175    0.1
  6251.347   700.6152    0.1
  6251.365   685.0911    0.1
  6251.382   667.2462    0.1
  6251.399   647.4626    0.1
  6251.417   622.0167    0.1
  6251.434   602.0515    0.1
  6251.452   584.2043    0.1
  6251.469   564.2684    0.1
  6251.486   546.9829    0.1
  6251.504   535.3412    0.1
  6251.521   528.3801    0.1
  6251.539   524.2805    0.1
  6251.556   527.6579    0.1
  6251.573   536.4061    0.1
  6251.591   549.3321    0.1
  6251.608   563.6891    0.1
  6251.626   587.8657    0.1
  6251.643   611.0324    0.1
  6251.660   631.7070    0.1
  6251.678   653.0957    0.1
  6251.695   677.1250    0.1
  6251.713   694.1826    0.1
  6251.730   696.0972    0.1
  6251.747   695.0276    0.1
  6251.765   718.5704    0.1
  6251.782   742.4476    0.1
  6251.800   754.9075    0.1
  6251.817   761.6549    0.1
  6251.834   765.7939    0.1
  6251.852   767.9938    0.1
  6251.869   767.5697    0.1
  6251.887   765.2632    0.1
  6251.904   762.5238    0.1
  6251.921   755.3267    0.1
  6251.939   748.6750    0.1
  6251.956   741.3509    0.1
  6251.973   729.5540    0.1
  6251.991   714.5996    0.1
  6252.008   695.6264    0.1
  6252.026   676.9064    0.1
  6252.043   653.0130    0.1
  6252.060   625.1587    0.1
  6252.078   595.5996    0.1
  6252.095   564.7294    0.1
  6252.113   533.3744    0.1
  6252.130   492.7741    0.1
  6252.147   456.7203    0.1
  6252.165   421.0969    0.1
  6252.182   389.5556    0.1
  6252.200   358.2146    0.1
  6252.217   329.5171    0.1
  6252.234   311.6517    0.1
  6252.252   300.6917    0.1
  6252.269   294.7846    0.1
  6252.287   295.4207    0.1
  6252.304   306.1197    0.1
  6252.321   321.8277    0.1
  6252.339   343.3953    0.1
  6252.356   373.5075    0.1
  6252.374   406.9504    0.1
  6252.391   438.4717    0.1
  6252.408   470.7389    0.1
  6252.426   511.4794    0.1
  6252.443   546.0235    0.1
  6252.461   579.6582    0.1
  6252.478   608.6527    0.1
  6252.495   638.8853    0.1
  6252.513   666.1493    0.1
  6252.530   687.6757    0.1
  6252.548   706.4998    0.1
  6252.565   719.9548    0.1
  6252.582   735.6507    0.1
  6252.600   747.2377    0.1
  6252.617   755.2208    0.1
  6252.635   759.8861    0.1
  6252.652   765.1024    0.1
  6252.669   768.3485    0.1
  6252.687   769.9877    0.1
  6252.704   772.1734    0.1
  6252.722   775.5146    0.1
  6252.739   778.5688    0.1
  6252.756   779.5933    0.1
  6252.774   778.8356    0.1
  6252.791   777.8105    0.1
  6252.809   777.8798    0.1
  6252.826   779.1586    0.1
  6252.843   780.0735    0.1
  6252.861   780.8317    0.1
  6252.878   779.4308    0.1
  6252.896   777.6446    0.1
  6252.913   777.1511    0.1
  6252.930   777.6654    0.1
  6252.948   777.0044    0.1
  6252.965   777.2588    0.1
  6252.983   777.3044    0.1
  6253.000   775.5905    0.1
  6253.017   771.2291    0.1
  6253.035   769.5327    0.1
  6253.052   768.2943    0.1
  6253.070   765.0386    0.1
  6253.087   762.0818    0.1
  6253.104   759.6038    0.1
  6253.122   755.8664    0.1
  6253.139   752.2258    0.1
  6253.157   751.2045    0.1
  6253.174   746.3899    0.1
  6253.191   743.3130    0.1
  6253.209   743.3112    0.1
  6253.226   741.7320    0.1
  6253.244   739.7420    0.1
  6253.261   738.0601    0.1
  6253.278   736.7658    0.1
  6253.296   735.2247    0.1
  6253.313   734.0386    0.1
  6253.331   731.1274    0.1
  6253.348   727.0781    0.1
  6253.365   723.1089    0.1
  6253.383   714.5672    0.1
  6253.400   706.5816    0.1
  6253.418   698.7297    0.1
  6253.435   690.1001    0.1
  6253.452   680.9263    0.1
  6253.470   671.0531    0.1
  6253.487   661.4906    0.1
  6253.505   652.6369    0.1
  6253.522   646.9229    0.1
  6253.539   644.0818    0.1
  6253.557   642.3928    0.1
  6253.574   641.5802    0.1
  6253.592   642.5488    0.1
  6253.609   646.6205    0.1
  6253.626   650.4655    0.1
  6253.644   653.0150    0.1
  6253.661   654.3654    0.1
  6253.679   652.0301    0.1
  6253.696   647.1936    0.1
  6253.713   638.8796    0.1
  6253.731   627.8116    0.1
  6253.748   613.5790    0.1
  6253.766   587.1908    0.1
  6253.783   562.8863    0.1
  6253.800   533.5725    0.1
  6253.818   506.2519    0.1
  6253.835   472.3247    0.1
  6253.853   437.7843    0.1
  6253.870   409.3404    0.1
  6253.887   382.2632    0.1
  6253.905   360.0289    0.1
  6253.922   339.8325    0.1
  6253.940   329.8731    0.1
  6253.957   326.6546    0.1
  6253.974   328.9829    0.1
  6253.992   339.0968    0.1
  6254.009   358.8983    0.1
  6254.027   380.3577    0.1
  6254.044   404.4725    0.1
  6254.061   436.9200    0.1
  6254.079   468.7265    0.1
  6254.096   502.5574    0.1
  6254.114   533.4091    0.1
  6254.131   566.5696    0.1
  6254.148   600.9244    0.1
  6254.166   628.4617    0.1
  6254.183   652.4708    0.1
  6254.200   671.9219    0.1
  6254.218   695.0532    0.1
  6254.235   711.2504    0.1
  6254.253   724.8327    0.1
  6254.270   735.4378    0.1
  6254.287   739.3659    0.1
  6254.305   746.0144    0.1
  6254.322   749.6130    0.1
  6254.340   749.7792    0.1
  6254.357   749.7760    0.1
  6254.374   750.8104    0.1
  6254.392   749.8691    0.1
  6254.409   747.5598    0.1
  6254.427   744.5571    0.1
  6254.444   741.5663    0.1
  6254.461   740.7933    0.1
  6254.479   738.1184    0.1
  6254.496   735.1840    0.1
  6254.514   735.2223    0.1
  6254.531   732.3474    0.1
  6254.548   729.7386    0.1
  6254.566   728.6706    0.1
  6254.583   728.5815    0.1
  6254.601   729.4569    0.1
  6254.618   729.4542    0.1
  6254.635   727.6554    0.1
  6254.653   725.8620    0.1
  6254.670   727.1830    0.1
  6254.688   728.2405    0.1
  6254.705   729.0267    0.1
  6254.722   730.3332    0.1
  6254.740   730.8236    0.1
  6254.757   732.1716    0.1
  6254.775   735.0482    0.1
  6254.792   737.9734    0.1
  6254.809   739.9942    0.1
  6254.827   742.3906    0.1
  6254.844   745.3782    0.1
  6254.862   748.7035    0.1
  6254.879   752.0685    0.1
  6254.896   756.1580    0.1
  6254.914   757.4870    0.1
  6254.931   759.0421    0.1
  6254.949   760.3376    0.1
  6254.966   760.9493    0.1
  6254.983   762.6553    0.1
  6255.001   763.3364    0.1
  6255.018   765.3664    0.1
  6255.036   766.9706    0.1
  6255.053   766.6057    0.1
  6255.070   765.1131    0.1
  6255.088   765.7886    0.1
  6255.105   769.9176    0.1
  6255.123   774.0935    0.1
  6255.140   775.3239    0.1
  6255.157   775.4757    0.1
  6255.175   776.7291    0.1
  6255.192   779.6487    0.1
  6255.210   781.1918    0.1
  6255.227   781.0823    0.1
  6255.244   781.1804    0.1
  6255.262   781.9502    0.1
  6255.279   784.5065    0.1
  6255.297   785.0285    0.1
  6255.314   783.9525    0.1
  6255.331   783.0140    0.1
  6255.349   781.7196    0.1
  6255.366   779.7349    0.1
  6255.384   776.2460    0.1
  6255.401   771.0319    0.1
  6255.418   765.4756    0.1
  6255.436   759.0232    0.1
  6255.453   751.8415    0.1
  6255.471   744.0050    0.1
  6255.488   731.5405    0.1
  6255.505   718.4211    0.1
  6255.523   703.5101    0.1
  6255.540   688.8892    0.1
  6255.558   676.2026    0.1
  6255.575   663.2897    0.1
  6255.592   650.7740    0.1
  6255.610   637.2207    0.1
  6255.627   628.7325    0.1
  6255.645   622.5942    0.1
  6255.662   618.3303    0.1
  6255.679   616.9026    0.1
  6255.697   618.7995    0.1
  6255.714   621.9179    0.1
  6255.732   626.4182    0.1
  6255.749   633.2556    0.1
  6255.766   638.3322    0.1
  6255.784   640.7124    0.1
  6255.801   639.5432    0.1
  6255.819   633.9872    0.1
  6255.836   626.9557    0.1
  6255.853   615.5650    0.1
  6255.871   597.1428    0.1
  6255.888   578.3246    0.1
  6255.906   550.7488    0.1
  6255.923   520.7523    0.1
  6255.940   492.6126    0.1
  6255.958   461.8154    0.1
  6255.975   435.5957    0.1
  6255.993   405.0057    0.1
  6256.010   381.3679    0.1
  6256.027   363.1566    0.1
  6256.045   351.0048    0.1
  6256.062   345.4108    0.1
  6256.080   349.1382    0.1
  6256.097   358.8091    0.1
  6256.114   374.3417    0.1
  6256.132   395.3201    0.1
  6256.149   421.6320    0.1
  6256.167   455.4383    0.1
  6256.184   484.7389    0.1
  6256.201   515.8678    0.1
  6256.219   548.9824    0.1
  6256.236   583.6469    0.1
  6256.254   615.9760    0.1
  6256.271   638.4070    0.1
  6256.288   659.0940    0.1
  6256.306   681.8162    0.1
  6256.323   699.3385    0.1
  6256.341   710.8729    0.1
  6256.358   717.7488    0.1
  6256.375   721.5343    0.1
  6256.393   725.9373    0.1
  6256.410   724.5390    0.1
  6256.428   721.1857    0.1
  6256.445   718.0602    0.1
  6256.462   710.4068    0.1
  6256.480   704.0150    0.1
  6256.497   697.1514    0.1
  6256.514   689.8401    0.1
  6256.532   683.0355    0.1
  6256.549   674.7351    0.1
  6256.567   668.2126    0.1
  6256.584   664.4841    0.1
  6256.601   664.8802    0.1
  6256.619   668.3019    0.1
  6256.636   671.8457    0.1
  6256.654   675.2245    0.1
  6256.671   681.7724    0.1
  6256.688   690.3265    0.1
  6256.706   701.2887    0.1
  6256.723   712.4326    0.1
  6256.741   721.4570    0.1
  6256.758   732.7530    0.1
  6256.775   742.5508    0.1
  6256.793   750.9123    0.1
  6256.810   756.9894    0.1
  6256.828   762.2193    0.1
  6256.845   767.9784    0.1
  6256.862   770.0927    0.1
  6256.880   772.3516    0.1
  6256.897   775.7108    0.1
  6256.915   777.9480    0.1
  6256.932   777.9779    0.1
  6256.949   779.7465    0.1
  6256.967   780.8296    0.1
  6256.984   780.4501    0.1
  6257.002   779.6126    0.1
  6257.019   779.6080    0.1
  6257.036   778.9274    0.1
  6257.054   776.8930    0.1
  6257.071   776.0477    0.1
  6257.089   776.2000    0.1
  6257.106   774.1462    0.1
  6257.123   770.4273    0.1
  6257.141   766.3459    0.1
  6257.158   764.8400    0.1
  6257.176   763.7487    0.1
  6257.193   759.5622    0.1
  6257.210   754.9479    0.1
  6257.228   749.8083    0.1
  6257.245   746.0490    0.1
  6257.263   743.8828    0.1
  6257.280   740.6736    0.1
  6257.297   736.8332    0.1
  6257.315   732.9955    0.1
  6257.332   731.3394    0.1
  6257.350   730.1205    0.1
  6257.367   729.1709    0.1
  6257.384   728.1044    0.1
  6257.402   726.4034    0.1
  6257.419   726.9111    0.1
  6257.437   728.4691    0.1
  6257.454   731.1310    0.1
  6257.471   731.8638    0.1
  6257.489   728.7222    0.1
  6257.506   726.9435    0.1
  6257.524   727.1166    0.1
  6257.541   723.6479    0.1
  6257.558   718.0024    0.1
  6257.576   710.6885    0.1
  6257.593   701.8623    0.1
  6257.611   686.2068    0.1
  6257.628   670.4867    0.1
  6257.645   652.8872    0.1
  6257.663   630.5809    0.1
  6257.680   609.3014    0.1
  6257.698   580.3860    0.1
  6257.715   556.8764    0.1
  6257.732   535.1323    0.1
  6257.750   511.9918    0.1
  6257.767   492.6216    0.1
  6257.785   477.2352    0.1
  6257.802   469.4224    0.1
  6257.819   466.8922    0.1
  6257.837   468.7245    0.1
  6257.854   478.2358    0.1
  6257.872   495.6695    0.1
  6257.889   513.6756    0.1
  6257.906   537.7208    0.1
  6257.924   564.2189    0.1
  6257.941   587.6142    0.1
  6257.959   611.2218    0.1
  6257.976   630.4522    0.1
  6257.993   650.6153    0.1
  6258.011   667.8293    0.1
  6258.028   679.1167    0.1
  6258.046   685.4772    0.1
  6258.063   689.6101    0.1
  6258.080   688.6118    0.1
  6258.098   684.7351    0.1
  6258.115   677.6241    0.1
  6258.133   666.3568    0.1
  6258.150   654.9132    0.1
  6258.167   633.4015    0.1
  6258.185   612.5347    0.1
  6258.202   591.9688    0.1
  6258.220   567.6383    0.1
  6258.237   545.3319    0.1
  6258.254   513.5605    0.1
  6258.272   487.5408    0.1
  6258.289   464.0619    0.1
  6258.307   442.1588    0.1
  6258.324   422.7164    0.1
  6258.341   406.6988    0.1
  6258.359   396.7721    0.1
  6258.376   389.9778    0.1
  6258.394   387.6715    0.1
  6258.411   388.6253    0.1
  6258.428   399.4548    0.1
  6258.446   412.1146    0.1
  6258.463   427.9334    0.1
  6258.481   448.4804    0.1
  6258.498   474.2146    0.1
  6258.515   500.4210    0.1
  6258.533   522.6075    0.1
  6258.550   549.6403    0.1
  6258.568   575.9396    0.1
  6258.585   598.5299    0.1
  6258.602   621.8123    0.1
  6258.620   640.2044    0.1
  6258.637   657.3726    0.1
  6258.655   672.9213    0.1
  6258.672   688.2446    0.1
  6258.689   701.3749    0.1
  6258.707   710.8101    0.1
  6258.724   722.1100    0.1
  6258.741   732.4104    0.1
  6258.759   742.6027    0.1
  6258.776   750.4624    0.1
  6258.794   755.9349    0.1
  6258.811   764.0266    0.1
  6258.828   769.8477    0.1
  6258.846   775.0861    0.1
  6258.863   780.4590    0.1
  6258.881   784.6193    0.1
  6258.898   788.0224    0.1
  6258.915   789.0452    0.1
  6258.933   789.2124    0.1
  6258.950   788.7997    0.1
  6258.968   787.7879    0.1
  6258.985   785.6190    0.1
  6259.002   782.4302    0.1
  6259.020   778.1897    0.1
  6259.037   772.6337    0.1
  6259.055   766.1943    0.1
  6259.072   757.9226    0.1
  6259.089   751.4559    0.1
  6259.107   743.1072    0.1
  6259.124   731.8631    0.1
  6259.142   720.1861    0.1
  6259.159   708.5172    0.1
  6259.176   694.9712    0.1
  6259.194   681.6546    0.1
  6259.211   670.7786    0.1
  6259.229   660.9560    0.1
  6259.246   652.0759    0.1
  6259.263   645.2685    0.1
  6259.281   641.4681    0.1
  6259.298   639.8280    0.1
  6259.316   639.2700    0.1
  6259.333   644.4322    0.1
  6259.350   649.7088    0.1
  6259.368   657.8321    0.1
  6259.385   666.3493    0.1
  6259.403   674.1847    0.1
  6259.420   685.9883    0.1
  6259.437   695.2736    0.1
  6259.455   704.9460    0.1
  6259.472   712.1892    0.1
  6259.490   717.6855    0.1
  6259.507   725.3891    0.1
  6259.524   732.3023    0.1
  6259.542   738.4025    0.1
  6259.559   741.3908    0.1
  6259.577   742.2034    0.1
  6259.594   744.4320    0.1
  6259.611   747.8427    0.1
  6259.629   752.1446    0.1
  6259.646   753.8033    0.1
  6259.664   756.0925    0.1
  6259.681   757.1234    0.1
  6259.698   758.2453    0.1
  6259.716   762.4055    0.1
  6259.733   766.6239    0.1
  6259.751   770.7901    0.1
  6259.768   773.1037    0.1
  6259.785   774.9791    0.1
  6259.803   778.5053    0.1
  6259.820   782.2060    0.1
  6259.838   784.0358    0.1
  6259.855   786.7171    0.1
  6259.872   788.1101    0.1
  6259.890   787.2662    0.1
  6259.907   786.9647    0.1
  6259.925   786.9843    0.1
  6259.942   787.3910    0.1
  6259.959   787.6126    0.1
  6259.977   789.3634    0.1
  6259.994   790.9641    0.1
  6260.012   788.9825    0.1
  6260.029   787.5705    0.1
  6260.046   786.3966    0.1
  6260.064   787.4191    0.1
  6260.081   788.7154    0.1
  6260.099   786.5682    0.1
  6260.116   785.6047    0.1
  6260.133   786.0312    0.1
  6260.151   786.1962    0.1
  6260.168   785.3398    0.1
  6260.186   781.5483    0.1
  6260.203   780.2998    0.1
  6260.220   778.9064    0.1
  6260.238   778.4325    0.1
  6260.255   778.0215    0.1
  6260.273   775.4051    0.1
  6260.290   773.7913    0.1
  6260.307   774.1156    0.1
  6260.325   774.1524    0.1
  6260.342   774.4670    0.1
  6260.360   775.0338    0.1
  6260.377   774.1503    0.1
  6260.394   772.9978    0.1
  6260.412   772.8004    0.1
  6260.429   773.2752    0.1
  6260.447   772.6069    0.1
  6260.464   770.4143    0.1
  6260.481   768.5969    0.1
  6260.499   766.0123    0.1
  6260.516   763.4305    0.1
  6260.534   754.6340    0.1
  6260.551   745.2677    0.1
  6260.568   736.7956    0.1
  6260.586   725.0149    0.1
  6260.603   712.2668    0.1
  6260.621   687.0274    0.1
  6260.638   664.6314    0.1
  6260.655   644.2844    0.1
  6260.673   618.0616    0.1
  6260.690   593.9313    0.1
  6260.708   563.9570    0.1
  6260.725   536.7068    0.1
  6260.742   513.4907    0.1
  6260.760   491.1707    0.1
  6260.777   475.0510    0.1
  6260.795   460.1706    0.1
  6260.812   452.8234    0.1
  6260.829   450.7517    0.1
  6260.847   455.6535    0.1
  6260.864   463.9491    0.1
  6260.882   483.4671    0.1
  6260.899   503.7447    0.1
  6260.916   524.7212    0.1
  6260.934   550.3744    0.1
  6260.951   572.8811    0.1
  6260.968   602.5818    0.1
  6260.986   629.0177    0.1
  6261.003   650.8552    0.1
  6261.021   673.3102    0.1
  6261.038   690.8778    0.1
  6261.055   711.0095    0.1
  6261.073   726.0081    0.1
  6261.090   738.1850    0.1
  6261.108   748.6100    0.1
  6261.125   755.9845    0.1
  6261.142   765.6654    0.1
  6261.160   770.8491    0.1
  6261.177   772.3074    0.1
  6261.195   773.9616    0.1
  6261.212   775.0924    0.1
  6261.229   775.7667    0.1
  6261.247   774.6452    0.1
  6261.264   774.1055    0.1
  6261.282   768.3090    0.1
  6261.299   764.9371    0.1
  6261.316   768.6002    0.1
  6261.334   774.5255    0.1
  6261.351   781.4902    0.1
  6261.369   784.2684    0.1
  6261.386   784.3736    0.1
  6261.403   781.5868    0.1
  6261.421   783.1845    0.1
  6261.438   786.0394    0.1
  6261.456   786.7666    0.1
  6261.473   786.3512    0.1
  6261.490   785.7352    0.1
  6261.508   785.1628    0.1
  6261.525   783.9880    0.1
  6261.543   781.2123    0.1
  6261.560   778.6123    0.1
  6261.577   774.8042    0.1
  6261.595   771.8627    0.1
  6261.612   768.4292    0.1
  6261.630   764.2711    0.1
  6261.647   760.2428    0.1
  6261.664   753.8334    0.1
  6261.682   747.2367    0.1
  6261.699   740.8031    0.1
  6261.717   733.6526    0.1
  6261.734   728.0675    0.1
  6261.751   720.5605    0.1
  6261.769   713.4846    0.1
  6261.786   705.3081    0.1
  6261.804   695.7493    0.1
  6261.821   688.6012    0.1
  6261.838   682.2201    0.1
  6261.856   672.9280    0.1
  6261.873   666.5111    0.1
  6261.891   660.8719    0.1
  6261.908   656.5353    0.1
  6261.925   654.1284    0.1
  6261.943   651.8956    0.1
  6261.960   650.1322    0.1
  6261.978   651.4814    0.1
  6261.995   653.1859    0.1
  6262.012   655.3850    0.1
  6262.030   660.6238    0.1
  6262.047   664.4410    0.1
  6262.065   669.1024    0.1
  6262.082   673.7056    0.1
  6262.099   680.1411    0.1
  6262.117   686.1038    0.1
  6262.134   693.0683    0.1
  6262.152   700.5543    0.1
  6262.169   706.7435    0.1
  6262.186   714.6338    0.1
  6262.204   724.7023    0.1
  6262.221   734.4530    0.1
  6262.239   742.0129    0.1
  6262.256   748.1792    0.1
  6262.273   756.7140    0.1
  6262.291   762.9291    0.1
  6262.308   768.7771    0.1
  6262.326   772.8533    0.1
  6262.343   775.7821    0.1
  6262.360   780.6150    0.1
  6262.378   783.1584    0.1
  6262.395   782.6100    0.1
  6262.413   783.6872    0.1
  6262.430   785.1308    0.1
  6262.447   786.7623    0.1
  6262.465   787.0821    0.1
  6262.482   788.5708    0.1
  6262.500   787.0544    0.1
  6262.517   787.4096    0.1
  6262.534   789.7050    0.1
  6262.552   789.4613    0.1
  6262.569   789.3945    0.1
  6262.587   789.3011    0.1
  6262.604   789.3912    0.1
  6262.621   790.0086    0.1
  6262.639   789.8696    0.1
  6262.656   788.4484    0.1
  6262.674   788.9102    0.1
  6262.691   788.5243    0.1
  6262.708   786.9388    0.1
  6262.726   786.9991    0.1
  6262.743   787.3667    0.1
  6262.761   786.2423    0.1
  6262.778   782.9489    0.1
  6262.795   781.0216    0.1
  6262.813   780.7819    0.1
  6262.830   780.5447    0.1
  6262.848   776.7299    0.1
  6262.865   775.2595    0.1
  6262.882   775.5830    0.1
  6262.900   775.7496    0.1
  6262.917   775.5069    0.1
  6262.935   774.0170    0.1
  6262.952   774.4669    0.1
  6262.969   774.8259    0.1
  6262.987   775.4304    0.1
  6263.004   776.7887    0.1
  6263.022   778.6115    0.1
  6263.039   779.4811    0.1
  6263.056   782.8654    0.1
  6263.074   784.4590    0.1
  6263.091   784.8461    0.1
  6263.109   786.5645    0.1
  6263.126   787.8470    0.1
  6263.143   787.6935    0.1
  6263.161   787.7972    0.1
  6263.178   787.3578    0.1
  6263.196   786.1436    0.1
  6263.213   786.0695    0.1
  6263.230   785.5271    0.1
  6263.248   784.2187    0.1
  6263.265   783.0767    0.1
  6263.282   781.0938    0.1
  6263.300   781.5819    0.1
  6263.317   783.3400    0.1
  6263.335   782.7437    0.1
  6263.352   780.6872    0.1
  6263.369   779.4154    0.1
  6263.387   780.8711    0.1
  6263.404   781.6304    0.1
  6263.422   781.4365    0.1
  6263.439   782.5032    0.1
  6263.456   782.8491    0.1
  6263.474   782.5241    0.1
  6263.491   782.8645    0.1
  6263.509   783.3939    0.1
  6263.526   784.2399    0.1
  6263.543   784.8146    0.1
  6263.561   784.3258    0.1
  6263.578   783.9841    0.1
  6263.596   779.9745    0.1
  6263.613   778.3274    0.1
  6263.630   778.6844    0.1
  6263.648   780.2105    0.1
  6263.665   780.5053    0.1
  6263.683   776.7640    0.1
  6263.700   774.6499    0.1
  6263.717   772.3569    0.1
  6263.735   772.8697    0.1
  6263.752   775.1507    0.1
  6263.770   777.5343    0.1
  6263.787   778.0269    0.1
  6263.804   781.3020    0.1
  6263.822   783.4187    0.1
  6263.839   783.5752    0.1
  6263.857   784.0634    0.1
  6263.874   784.7629    0.1
  6263.891   785.1976    0.1
  6263.909   783.3402    0.1
  6263.926   781.3142    0.1
  6263.944   779.3652    0.1
  6263.961   778.8154    0.1
  6263.978   779.6578    0.1
  6263.996   776.0900    0.1
  6264.013   772.6866    0.1
  6264.031   774.1266    0.1
  6264.048   774.4601    0.1
  6264.065   771.0398    0.1
  6264.083   769.0291    0.1
  6264.100   770.1022    0.1
  6264.118   773.2153    0.1
  6264.135   774.7698    0.1
  6264.152   775.3131    0.1
  6264.170   775.6800    0.1
  6264.187   776.3865    0.1
  6264.205   778.3576    0.1
  6264.222   778.8086    0.1
  6264.239   777.7734    0.1
  6264.257   778.4854    0.1
  6264.274   778.1846    0.1
  6264.292   775.8218    0.1
  6264.309   774.5391    0.1
  6264.326   773.8014    0.1
  6264.344   771.6448    0.1
  6264.361   769.0507    0.1
  6264.379   764.9003    0.1
  6264.396   761.1646    0.1
  6264.413   758.6904    0.1
  6264.431   756.1024    0.1
  6264.448   752.5345    0.1
  6264.466   748.2145    0.1
  6264.483   740.2963    0.1
  6264.500   733.7957    0.1
  6264.518   727.5724    0.1
  6264.535   719.2433    0.1
  6264.553   708.8702    0.1
  6264.570   695.3942    0.1
  6264.587   681.7665    0.1
  6264.605   661.3812    0.1
  6264.622   641.5629    0.1
  6264.640   621.7190    0.1
  6264.657   592.6092    0.1
  6264.674   566.5341    0.1
  6264.692   536.8731    0.1
  6264.709   507.4093    0.1
  6264.727   479.1419    0.1
  6264.744   445.2656    0.1
  6264.761   418.2271    0.1
  6264.779   392.9508    0.1
  6264.796   372.3775    0.1
  6264.814   357.6862    0.1
  6264.831   349.4646    0.1
  6264.848   349.6997    0.1
  6264.866   355.6826    0.1
  6264.883   369.1617    0.1
  6264.901   385.4280    0.1
  6264.918   411.8109    0.1
  6264.935   438.8356    0.1
  6264.953   472.3103    0.1
  6264.970   505.9678    0.1
  6264.988   533.9714    0.1
  6265.005   570.4584    0.1
  6265.022   600.2827    0.1
  6265.040   629.8354    0.1
  6265.057   656.7162    0.1
  6265.075   676.7550    0.1
  6265.092   699.1865    0.1
  6265.109   713.5699    0.1
  6265.127   726.5965    0.1
  6265.144   734.8576    0.1
  6265.162   740.3598    0.1
  6265.179   746.7262    0.1
  6265.196   749.1860    0.1
  6265.214   749.1834    0.1
  6265.231   747.5548    0.1
  6265.249   746.6339    0.1
  6265.266   745.8150    0.1
  6265.283   744.6767    0.1
  6265.301   743.7938    0.1
  6265.318   741.7245    0.1
  6265.336   741.5315    0.1
  6265.353   746.0014    0.1
  6265.370   748.4359    0.1
  6265.388   749.2373    0.1
  6265.405   754.3949    0.1
  6265.423   759.1808    0.1
  6265.440   764.8829    0.1
  6265.457   769.5572    0.1
  6265.475   773.1800    0.1
  6265.492   775.7066    0.1
  6265.509   776.9679    0.1
  6265.527   778.8026    0.1
  6265.544   780.1687    0.1
  6265.562   780.0404    0.1
  6265.579   778.6332    0.1
  6265.596   777.1084    0.1
  6265.614   776.0502    0.1
  6265.631   775.5108    0.1
  6265.649   772.7025    0.1
  6265.666   768.7326    0.1
  6265.683   767.4806    0.1
  6265.701   766.9117    0.1
  6265.718   762.2919    0.1
  6265.736   758.4025    0.1
  6265.753   756.4448    0.1
  6265.770   754.4122    0.1
  6265.788   752.6071    0.1
  6265.805   751.6707    0.1
  6265.823   747.7805    0.1
  6265.840   741.1565    0.1
  6265.857   735.0143    0.1
  6265.875   730.2956    0.1
  6265.892   723.7714    0.1
  6265.910   717.8042    0.1
  6265.927   712.6780    0.1
  6265.944   701.7051    0.1
  6265.962   694.2278    0.1
  6265.979   690.5345    0.1
  6265.997   689.0530    0.1
  6266.014   689.0544    0.1
  6266.031   689.5180    0.1
  6266.049   689.3081    0.1
  6266.066   692.8486    0.1
  6266.084   700.1985    0.1
  6266.101   707.6334    0.1
  6266.118   716.8025    0.1
  6266.136   726.4383    0.1
  6266.153   738.2144    0.1
  6266.171   748.5325    0.1
  6266.188   755.6403    0.1
  6266.205   765.0316    0.1
  6266.223   771.5626    0.1
  6266.240   777.8888    0.1
  6266.258   781.9045    0.1
  6266.275   783.8743    0.1
  6266.292   785.6349    0.1
  6266.310   786.4662    0.1
  6266.327   786.8416    0.1
  6266.345   785.3479    0.1
  6266.362   783.0035    0.1
  6266.379   781.5463    0.1
  6266.397   778.8841    0.1
  6266.414   775.1101    0.1
  6266.432   770.6131    0.1
  6266.449   769.4970    0.1
  6266.466   767.6581    0.1
  6266.484   765.6798    0.1
  6266.501   763.7024    0.1
  6266.519   760.1853    0.1
  6266.536   758.8088    0.1
  6266.553   758.4096    0.1
  6266.571   758.0430    0.1
  6266.588   757.5024    0.1
  6266.606   758.4855    0.1
  6266.623   759.4070    0.1
  6266.640   760.2380    0.1
  6266.658   763.6347    0.1
  6266.675   765.5460    0.1
  6266.693   767.2547    0.1
  6266.710   768.2823    0.1
  6266.727   769.2738    0.1
  6266.745   771.1249    0.1
  6266.762   771.4108    0.1
  6266.780   771.8249    0.1
  6266.797   773.0131    0.1
  6266.814   774.7694    0.1
  6266.832   777.1585    0.1
  6266.849   778.2014    0.1
  6266.867   779.1841    0.1
  6266.884   778.0695    0.1
  6266.901   777.2043    0.1
  6266.919   777.7610    0.1
  6266.936   778.8597    0.1
  6266.954   779.8823    0.1
  6266.971   779.4304    0.1
  6266.988   780.4620    0.1
  6267.006   782.5152    0.1
  6267.023   782.9559    0.1
  6267.041   782.7174    0.1
  6267.058   781.2266    0.1
  6267.075   780.8195    0.1
  6267.093   780.4026    0.1
  6267.110   779.9462    0.1
  6267.128   779.9912    0.1
  6267.145   780.2239    0.1
  6267.162   778.2952    0.1
  6267.180   776.7516    0.1
  6267.197   774.8036    0.1
  6267.215   773.0883    0.1
  6267.232   770.3781    0.1
  6267.249   767.3406    0.1
  6267.267   762.9106    0.1
  6267.284   756.3726    0.1
  6267.302   752.0777    0.1
  6267.319   745.4748    0.1
  6267.336   740.0938    0.1
  6267.354   736.6259    0.1
  6267.371   731.1236    0.1
  6267.389   727.6457    0.1
  6267.406   725.5330    0.1
  6267.423   722.8736    0.1
  6267.441   721.2113    0.1
  6267.458   721.7288    0.1
  6267.476   722.8224    0.1
  6267.493   726.8424    0.1
  6267.510   732.1626    0.1
  6267.528   735.4813    0.1
  6267.545   740.4617    0.1
  6267.563   745.8276    0.1
  6267.580   750.8196    0.1
  6267.597   758.0371    0.1
  6267.615   763.5303    0.1
  6267.632   769.0275    0.1
  6267.650   774.6598    0.1
  6267.667   779.0712    0.1
  6267.684   783.2630    0.1
  6267.702   786.3055    0.1
  6267.719   786.5226    0.1
  6267.736   788.4309    0.1
  6267.754   790.2956    0.1
  6267.771   790.5398    0.1
  6267.789   790.1401    0.1
  6267.806   789.2099    0.1
  6267.823   791.0455    0.1
  6267.841   792.0966    0.1
  6267.858   790.2530    0.1
  6267.876   789.1496    0.1
  6267.893   789.0565    0.1
  6267.910   787.1411    0.1
  6267.928   785.4510    0.1
  6267.945   785.4868    0.1
  6267.963   785.4012    0.1
  6267.980   784.6460    0.1
  6267.997   781.9826    0.1
  6268.015   780.7944    0.1
  6268.032   780.3441    0.1
  6268.050   777.0116    0.1
  6268.067   775.1844    0.1
  6268.084   771.8845    0.1
  6268.102   767.7946    0.1
  6268.119   765.0075    0.1
  6268.137   761.0523    0.1
  6268.154   757.7378    0.1
  6268.171   754.3286    0.1
  6268.189   751.5762    0.1
  6268.206   749.3159    0.1
  6268.224   744.9745    0.1
  6268.241   742.3664    0.1
  6268.258   740.6227    0.1
  6268.276   737.6507    0.1
  6268.293   734.6028    0.1
  6268.311   730.8030    0.1
  6268.328   726.3531    0.1
  6268.345   722.9623    0.1
  6268.363   717.4410    0.1
  6268.380   711.7129    0.1
  6268.398   704.1103    0.1
  6268.415   696.4608    0.1
  6268.432   689.3034    0.1
  6268.450   681.3151    0.1
  6268.467   674.1326    0.1
  6268.485   667.9063    0.1
  6268.502   664.6784    0.1
  6268.519   662.8730    0.1
  6268.537   661.9638    0.1
  6268.554   663.9082    0.1
  6268.572   668.2088    0.1
  6268.589   677.2163    0.1
  6268.606   686.2313    0.1
  6268.624   697.0183    0.1
  6268.641   707.3699    0.1
  6268.659   715.9221    0.1
  6268.676   728.9658    0.1
  6268.693   739.1417    0.1
  6268.711   747.9513    0.1
  6268.728   756.1781    0.1
  6268.746   762.6124    0.1
  6268.763   769.5293    0.1
  6268.780   771.7018    0.1
  6268.798   774.5713    0.1
  6268.815   778.9842    0.1
  6268.833   780.8537    0.1
  6268.850   781.2722    0.1
  6268.867   780.5394    0.1
  6268.885   778.7522    0.1
  6268.902   778.6318    0.1
  6268.920   778.6112    0.1
  6268.937   777.3523    0.1
  6268.954   773.0071    0.1
  6268.972   768.5916    0.1
  6268.989   764.0886    0.1
  6269.007   762.1495    0.1
  6269.024   758.2522    0.1
  6269.041   754.3594    0.1
  6269.059   751.8729    0.1
  6269.076   749.2360    0.1
  6269.094   748.4747    0.1
  6269.111   747.9259    0.1
  6269.128   747.3932    0.1
  6269.146   748.4778    0.1
  6269.163   751.0544    0.1
  6269.181   754.6939    0.1
  6269.198   757.2881    0.1
  6269.215   761.0109    0.1
  6269.233   765.0453    0.1
  6269.250   769.0468    0.1
  6269.268   773.6118    0.1
  6269.285   776.8511    0.1
  6269.302   776.3646    0.1
  6269.320   778.7043    0.1
  6269.337   783.2426    0.1
  6269.355   784.8123    0.1
  6269.372   784.3328    0.1
  6269.389   783.2330    0.1
  6269.407   783.0725    0.1
  6269.424   782.7317    0.1
  6269.442   778.7573    0.1
  6269.459   776.0782    0.1
  6269.476   772.2992    0.1
  6269.494   767.2279    0.1
  6269.511   762.7243    0.1
  6269.529   754.3754    0.1
  6269.546   747.3622    0.1
  6269.563   742.3951    0.1
  6269.581   732.6225    0.1
  6269.598   723.8454    0.1
  6269.616   717.7118    0.1
  6269.633   709.8859    0.1
  6269.650   702.5025    0.1
  6269.668   691.6623    0.1
  6269.685   681.2091    0.1
  6269.703   671.7795    0.1
  6269.720   658.7572    0.1
  6269.737   646.5928    0.1
  6269.755   630.5751    0.1
  6269.772   614.2447    0.1
  6269.790   600.6140    0.1
  6269.807   574.6707    0.1
  6269.824   554.1735    0.1
  6269.842   536.0622    0.1
  6269.859   515.2748    0.1
  6269.877   500.3265    0.1
  6269.894   484.9606    0.1
  6269.911   475.0383    0.1
  6269.929   470.8838    0.1
  6269.946   473.1137    0.1
  6269.964   479.4078    0.1
