#  wavelength    Flux         Std.Dev.
#  [Angstroem]   [F(5500)]    [N/A]

  6277.027   618.5838    0.1
  6277.045   635.7158    0.1
  6277.062   648.2026    0.1
  6277.079   654.7295    0.1
  6277.097   655.0070    0.1
  6277.114   644.3249    0.1
  6277.132   626.8860    0.1
  6277.149   611.3159    0.1
  6277.166   614.4121    0.1
  6277.184   640.9367    0.1
  6277.201   673.4905    0.1
  6277.219   695.5087    0.1
  6277.236   718.2407    0.1
  6277.253   726.2511    0.1
  6277.271   725.2190    0.1
  6277.288   716.9208    0.1
  6277.306   713.9676    0.1
  6277.323   716.4710    0.1
  6277.340   727.5055    0.1
  6277.358   736.7686    0.1
  6277.375   745.3803    0.1
  6277.393   750.4304    0.1
  6277.410   751.8815    0.1
  6277.427   749.8017    0.1
  6277.445   751.1802    0.1
  6277.462   754.9147    0.1
  6277.480   755.1140    0.1
  6277.497   748.3860    0.1
  6277.514   734.2335    0.1
  6277.532   706.5286    0.1
  6277.549   675.4816    0.1
  6277.567   615.5963    0.1
  6277.584   562.7053    0.1
  6277.601   533.1479    0.1
  6277.619   526.2953    0.1
  6277.636   542.7797    0.1
  6277.654   569.0479    0.1
  6277.671   628.6544    0.1
  6277.688   672.9383    0.1
  6277.706   710.2467    0.1
  6277.723   734.6873    0.1
  6277.741   743.1333    0.1
  6277.758   744.6227    0.1
  6277.775   740.8905    0.1
  6277.793   736.1265    0.1
  6277.810   724.2549    0.1
  6277.828   716.5320    0.1
  6277.845   711.7209    0.1
  6277.862   691.7990    0.1
  6277.880   677.5425    0.1
  6277.897   668.9663    0.1
  6277.915   670.6217    0.1
  6277.932   676.2117    0.1
  6277.949   685.4051    0.1
  6277.967   693.4138    0.1
  6277.984   698.6462    0.1
  6278.002   709.7932    0.1
  6278.019   716.7132    0.1
  6278.036   720.7775    0.1
  6278.054   727.6510    0.1
  6278.071   733.0990    0.1
  6278.089   739.2303    0.1
  6278.106   747.3369    0.1
  6278.123   752.9532    0.1
  6278.141   757.6944    0.1
  6278.158   761.8715    0.1
  6278.176   764.8954    0.1
  6278.193   765.9152    0.1
  6278.210   767.4737    0.1
  6278.228   770.1040    0.1
  6278.245   769.9089    0.1
  6278.263   769.2680    0.1
  6278.280   769.4352    0.1
  6278.297   763.6432    0.1
  6278.315   755.6465    0.1
  6278.332   738.7889    0.1
  6278.350   705.6278    0.1
  6278.367   673.0127    0.1
  6278.384   625.3007    0.1
  6278.402   616.1144    0.1
  6278.419   633.6106    0.1
  6278.437   678.7204    0.1
  6278.454   713.3442    0.1
  6278.471   742.3547    0.1
  6278.489   757.5032    0.1
  6278.506   760.6783    0.1
  6278.524   758.8599    0.1
  6278.541   744.7030    0.1
  6278.558   727.3999    0.1
  6278.576   678.4366    0.1
  6278.593   633.5137    0.1
  6278.611   595.2786    0.1
  6278.628   595.3319    0.1
  6278.645   620.2426    0.1
  6278.663   666.1434    0.1
  6278.680   711.2861    0.1
  6278.698   736.1977    0.1
  6278.715   752.9021    0.1
  6278.732   758.1184    0.1
  6278.750   758.1041    0.1
  6278.767   759.2728    0.1
  6278.785   760.2666    0.1
  6278.802   761.0220    0.1
  6278.819   760.8627    0.1
  6278.837   759.6120    0.1
  6278.854   757.0835    0.1
  6278.872   752.5993    0.1
  6278.889   748.4070    0.1
  6278.906   741.7833    0.1
  6278.924   735.0389    0.1
  6278.941   730.2928    0.1
  6278.959   725.1194    0.1
  6278.976   718.1935    0.1
  6278.993   710.4946    0.1
  6279.011   703.8698    0.1
  6279.028   701.5586    0.1
  6279.045   701.3499    0.1
  6279.063   702.2034    0.1
  6279.080   704.0341    0.1
  6279.098   708.8043    0.1
  6279.115   712.7849    0.1
  6279.132   715.5470    0.1
  6279.150   722.8822    0.1
  6279.167   726.0556    0.1
  6279.185   726.3042    0.1
  6279.202   723.7102    0.1
  6279.219   720.6207    0.1
  6279.237   717.0605    0.1
  6279.254   708.7458    0.1
  6279.272   698.8734    0.1
  6279.289   681.6301    0.1
  6279.306   661.6540    0.1
  6279.324   644.8828    0.1
  6279.341   612.3300    0.1
  6279.359   574.0837    0.1
  6279.376   541.1608    0.1
  6279.393   479.8892    0.1
  6279.411   453.3482    0.1
  6279.428   449.5373    0.1
  6279.446   471.3136    0.1
  6279.463   494.2886    0.1
  6279.480   519.7147    0.1
  6279.498   545.7384    0.1
  6279.515   563.5226    0.1
  6279.533   585.6008    0.1
  6279.550   604.6273    0.1
  6279.567   618.0734    0.1
  6279.585   640.1934    0.1
  6279.602   658.9525    0.1
  6279.620   674.9514    0.1
  6279.637   693.1956    0.1
  6279.654   704.2887    0.1
  6279.672   713.8639    0.1
  6279.689   724.9129    0.1
  6279.707   731.3894    0.1
  6279.724   735.6656    0.1
  6279.741   736.9895    0.1
  6279.759   737.4029    0.1
  6279.776   740.8356    0.1
  6279.794   740.2103    0.1
  6279.811   737.1658    0.1
  6279.828   725.5531    0.1
  6279.846   706.3295    0.1
  6279.863   678.8963    0.1
  6279.881   625.3036    0.1
  6279.898   592.0978    0.1
  6279.915   575.0916    0.1
  6279.933   602.2326    0.1
  6279.950   637.2561    0.1
  6279.968   683.8279    0.1
  6279.985   714.7561    0.1
  6280.002   730.1881    0.1
  6280.020   739.9912    0.1
  6280.037   739.7054    0.1
  6280.055   734.8455    0.1
  6280.072   718.1654    0.1
  6280.089   703.6717    0.1
  6280.107   688.8366    0.1
  6280.124   663.2314    0.1
  6280.142   641.2950    0.1
  6280.159   612.8622    0.1
  6280.176   578.2365    0.1
  6280.194   550.7601    0.1
  6280.211   511.4773    0.1
  6280.229   477.0966    0.1
  6280.246   451.6236    0.1
  6280.263   414.9860    0.1
  6280.281   390.6634    0.1
  6280.298   371.8785    0.1
  6280.316   356.0829    0.1
  6280.333   350.6982    0.1
  6280.350   351.2479    0.1
  6280.368   359.7324    0.1
  6280.385   370.7342    0.1
  6280.403   392.0099    0.1
  6280.420   417.9870    0.1
  6280.437   439.6221    0.1
  6280.455   474.4064    0.1
  6280.472   506.6976    0.1
  6280.490   533.6444    0.1
  6280.507   568.7154    0.1
  6280.524   595.0723    0.1
  6280.542   620.5830    0.1
  6280.559   648.0071    0.1
  6280.577   666.2862    0.1
  6280.594   684.4787    0.1
  6280.611   692.8918    0.1
  6280.629   691.5753    0.1
  6280.646   678.0375    0.1
  6280.664   647.8434    0.1
  6280.681   620.7785    0.1
  6280.698   610.5227    0.1
  6280.716   629.9683    0.1
  6280.733   661.6311    0.1
  6280.751   707.0226    0.1
  6280.768   733.8325    0.1
  6280.785   750.4493    0.1
  6280.803   761.9608    0.1
  6280.820   766.0222    0.1
  6280.838   766.8035    0.1
  6280.855   766.5308    0.1
  6280.872   765.6609    0.1
  6280.890   763.2129    0.1
  6280.907   761.7911    0.1
  6280.925   761.0231    0.1
  6280.942   757.6514    0.1
  6280.959   754.2639    0.1
  6280.977   751.5129    0.1
  6280.994   748.3933    0.1
  6281.012   746.4753    0.1
  6281.029   745.0452    0.1
  6281.046   742.7309    0.1
  6281.064   741.7754    0.1
  6281.081   742.5569    0.1
  6281.099   743.2908    0.1
  6281.116   743.4812    0.1
  6281.133   743.0870    0.1
  6281.151   743.4134    0.1
  6281.168   744.1145    0.1
  6281.186   745.8539    0.1
  6281.203   749.4161    0.1
  6281.220   753.5377    0.1
  6281.238   756.3094    0.1
  6281.255   757.0949    0.1
  6281.273   757.2928    0.1
  6281.290   760.3965    0.1
  6281.307   762.2480    0.1
  6281.325   762.0600    0.1
  6281.342   763.1027    0.1
  6281.359   763.1319    0.1
  6281.377   758.8663    0.1
  6281.394   747.5700    0.1
  6281.412   734.0388    0.1
  6281.429   696.0718    0.1
  6281.446   656.1754    0.1
  6281.464   624.6338    0.1
  6281.481   622.8980    0.1
  6281.499   643.6364    0.1
  6281.516   674.5535    0.1
  6281.533   711.3957    0.1
  6281.551   731.5095    0.1
  6281.568   743.4468    0.1
  6281.586   749.5963    0.1
  6281.603   750.8717    0.1
  6281.620   749.5736    0.1
  6281.638   747.1588    0.1
  6281.655   744.8221    0.1
  6281.673   739.9123    0.1
  6281.690   737.0262    0.1
  6281.707   735.8934    0.1
  6281.725   732.7110    0.1
  6281.742   731.8081    0.1
  6281.760   732.5456    0.1
  6281.777   730.6845    0.1
  6281.794   731.2101    0.1
  6281.812   735.1892    0.1
  6281.829   735.5241    0.1
  6281.847   736.0584    0.1
  6281.864   740.9482    0.1
  6281.881   744.9866    0.1
  6281.899   746.6956    0.1
  6281.916   747.1817    0.1
  6281.934   749.6008    0.1
  6281.951   752.1622    0.1
  6281.968   751.3362    0.1
  6281.986   750.0612    0.1
  6282.003   749.2372    0.1
  6282.021   746.0709    0.1
  6282.038   743.3533    0.1
  6282.055   740.9513    0.1
  6282.073   735.5048    0.1
  6282.090   728.8397    0.1
  6282.108   718.3442    0.1
  6282.125   706.9846    0.1
  6282.142   696.2560    0.1
  6282.160   674.8726    0.1
  6282.177   645.5086    0.1
  6282.195   618.8455    0.1
  6282.212   569.0408    0.1
  6282.229   528.6523    0.1
  6282.247   503.0253    0.1
  6282.264   494.7809    0.1
  6282.282   496.7197    0.1
  6282.299   500.5887    0.1
  6282.316   502.7173    0.1
  6282.334   502.8577    0.1
  6282.351   502.1922    0.1
  6282.369   502.1755    0.1
  6282.386   503.5756    0.1
  6282.403   507.6999    0.1
  6282.421   517.7888    0.1
  6282.438   527.6268    0.1
  6282.456   540.8250    0.1
  6282.473   554.9407    0.1
  6282.490   567.0146    0.1
  6282.508   588.9500    0.1
  6282.525   605.8503    0.1
  6282.543   617.4033    0.1
  6282.560   640.3717    0.1
  6282.577   657.6106    0.1
  6282.595   671.1789    0.1
  6282.612   686.7919    0.1
  6282.630   699.1483    0.1
  6282.647   712.7632    0.1
  6282.664   727.8057    0.1
  6282.682   736.5520    0.1
  6282.699   741.9416    0.1
  6282.717   750.4487    0.1
  6282.734   756.7276    0.1
  6282.751   759.0707    0.1
  6282.769   761.4059    0.1
  6282.786   763.5572    0.1
  6282.804   765.2022    0.1
  6282.821   765.6727    0.1
  6282.838   765.7567    0.1
  6282.856   769.5782    0.1
  6282.873   769.4945    0.1
  6282.891   766.2080    0.1
  6282.908   765.5460    0.1
  6282.925   766.7806    0.1
  6282.943   768.8453    0.1
  6282.960   767.8764    0.1
  6282.978   767.1352    0.1
