#  wavelength    Flux         Std.Dev.
#  [Angstroem]   [F(5500)]    [N/A]

  6180.013   527.9055    0.1
  6180.031   549.5304    0.1
  6180.048   578.4002    0.1
  6180.066   606.0414    0.1
  6180.083   629.0725    0.1
  6180.100   651.3010    0.1
  6180.118   674.5376    0.1
  6180.135   693.3285    0.1
  6180.153   708.5555    0.1
  6180.170   722.9972    0.1
  6180.187   734.2147    0.1
  6180.205   742.3180    0.1
  6180.222   750.5852    0.1
  6180.240   761.6345    0.1
  6180.257   765.4587    0.1
  6180.274   766.7971    0.1
  6180.292   768.0232    0.1
  6180.309   767.5161    0.1
  6180.327   770.1399    0.1
  6180.344   772.3139    0.1
  6180.361   773.0167    0.1
  6180.379   772.9986    0.1
  6180.396   773.7356    0.1
  6180.414   774.5393    0.1
  6180.431   775.1278    0.1
  6180.448   775.0064    0.1
  6180.466   773.8253    0.1
  6180.483   773.0569    0.1
  6180.501   773.6669    0.1
  6180.518   774.5253    0.1
  6180.535   774.3988    0.1
  6180.553   774.1959    0.1
  6180.570   775.0142    0.1
  6180.588   775.4399    0.1
  6180.605   776.3179    0.1
  6180.622   777.6861    0.1
  6180.640   779.0872    0.1
  6180.657   779.9695    0.1
  6180.675   778.6571    0.1
  6180.692   776.1043    0.1
  6180.709   778.7335    0.1
  6180.727   779.9332    0.1
  6180.744   779.4352    0.1
  6180.762   778.7375    0.1
  6180.779   783.3462    0.1
  6180.796   785.9732    0.1
  6180.814   786.9971    0.1
  6180.831   788.2582    0.1
  6180.849   790.9797    0.1
  6180.866   791.8798    0.1
  6180.883   791.6594    0.1
  6180.901   791.7258    0.1
  6180.918   791.2626    0.1
  6180.936   792.4878    0.1
  6180.953   794.6198    0.1
  6180.970   794.7955    0.1
  6180.988   792.4115    0.1
  6181.005   789.7709    0.1
  6181.023   787.7794    0.1
  6181.040   788.6440    0.1
  6181.057   786.9637    0.1
  6181.075   784.6381    0.1
  6181.092   783.2210    0.1
  6181.110   782.2166    0.1
  6181.127   780.6601    0.1
  6181.144   779.3189    0.1
  6181.162   778.5499    0.1
  6181.179   774.8300    0.1
  6181.197   774.4041    0.1
  6181.214   775.2967    0.1
  6181.231   774.0350    0.1
  6181.249   773.1632    0.1
  6181.266   771.1348    0.1
  6181.284   769.6494    0.1
  6181.301   774.1842    0.1
  6181.318   776.1288    0.1
  6181.336   778.1781    0.1
  6181.353   781.3144    0.1
  6181.371   782.0970    0.1
  6181.388   781.9194    0.1
  6181.405   782.5546    0.1
  6181.423   783.9237    0.1
  6181.440   784.7824    0.1
  6181.458   784.6453    0.1
  6181.475   783.6820    0.1
  6181.492   782.0885    0.1
  6181.510   780.9526    0.1
  6181.527   780.5746    0.1
  6181.545   780.9131    0.1
  6181.562   782.2022    0.1
  6181.579   782.0020    0.1
  6181.597   780.8950    0.1
  6181.614   779.9663    0.1
  6181.632   779.6871    0.1
  6181.649   779.4057    0.1
  6181.666   778.4577    0.1
  6181.684   777.5180    0.1
  6181.701   777.8597    0.1
  6181.719   781.8970    0.1
  6181.736   783.4750    0.1
  6181.753   782.5620    0.1
  6181.771   781.7113    0.1
  6181.788   783.9100    0.1
  6181.806   784.8397    0.1
  6181.823   783.8973    0.1
  6181.840   784.4566    0.1
  6181.858   781.8755    0.1
  6181.875   780.4009    0.1
  6181.892   781.6524    0.1
  6181.910   781.2740    0.1
  6181.927   779.9352    0.1
  6181.945   777.8486    0.1
  6181.962   774.6520    0.1
  6181.979   775.9539    0.1
  6181.997   775.9380    0.1
  6182.014   774.6713    0.1
  6182.032   773.7765    0.1
  6182.049   775.1054    0.1
  6182.066   774.9942    0.1
  6182.084   774.4019    0.1
  6182.101   775.4724    0.1
  6182.119   776.9158    0.1
  6182.136   776.7967    0.1
  6182.153   776.3666    0.1
  6182.171   777.8596    0.1
  6182.188   777.3738    0.1
  6182.206   776.4331    0.1
  6182.223   776.1080    0.1
  6182.240   776.7938    0.1
  6182.258   776.2850    0.1
  6182.275   775.0460    0.1
  6182.293   773.9460    0.1
  6182.310   775.0672    0.1
  6182.327   774.1220    0.1
  6182.345   773.7247    0.1
  6182.362   774.7917    0.1
  6182.380   774.3583    0.1
  6182.397   774.4046    0.1
  6182.414   775.6663    0.1
  6182.432   777.7783    0.1
  6182.449   778.8601    0.1
  6182.467   778.0478    0.1
  6182.484   777.8695    0.1
  6182.501   779.4785    0.1
  6182.519   780.4505    0.1
  6182.536   779.7335    0.1
  6182.554   778.6722    0.1
  6182.571   777.9510    0.1
  6182.588   777.2832    0.1
  6182.606   775.4222    0.1
  6182.623   773.4011    0.1
  6182.641   772.0582    0.1
  6182.658   768.3810    0.1
  6182.675   766.2747    0.1
  6182.693   764.1582    0.1
  6182.710   758.5278    0.1
  6182.728   757.8780    0.1
  6182.745   758.6004    0.1
  6182.762   758.2745    0.1
  6182.780   756.4943    0.1
  6182.797   755.6151    0.1
  6182.815   755.1532    0.1
  6182.832   755.7487    0.1
  6182.849   761.0685    0.1
  6182.867   764.5522    0.1
  6182.884   764.0392    0.1
  6182.902   762.4082    0.1
  6182.919   764.3640    0.1
  6182.936   767.2333    0.1
  6182.954   767.5141    0.1
  6182.971   766.2036    0.1
  6182.989   767.1796    0.1
  6183.006   766.2317    0.1
  6183.023   762.8867    0.1
  6183.041   758.3787    0.1
  6183.058   753.5476    0.1
  6183.076   750.7260    0.1
  6183.093   746.7793    0.1
  6183.110   740.9088    0.1
  6183.128   735.7614    0.1
  6183.145   728.7030    0.1
  6183.163   722.0971    0.1
  6183.180   716.6614    0.1
  6183.197   709.5760    0.1
  6183.215   704.2156    0.1
  6183.232   700.2273    0.1
  6183.250   696.5642    0.1
  6183.267   692.0598    0.1
  6183.284   689.3846    0.1
  6183.302   689.1591    0.1
  6183.319   691.1756    0.1
  6183.337   694.6231    0.1
  6183.354   695.9052    0.1
  6183.371   698.3377    0.1
  6183.389   704.3840    0.1
  6183.406   709.3771    0.1
  6183.424   712.8148    0.1
  6183.441   714.7980    0.1
  6183.458   715.0096    0.1
  6183.476   718.4574    0.1
  6183.493   719.6911    0.1
  6183.511   719.5141    0.1
  6183.528   719.7550    0.1
  6183.545   716.7159    0.1
  6183.563   715.8580    0.1
  6183.580   715.5730    0.1
  6183.598   713.4131    0.1
  6183.615   718.3221    0.1
  6183.632   720.9317    0.1
  6183.650   722.1047    0.1
  6183.667   726.5592    0.1
  6183.685   727.5386    0.1
  6183.702   730.4007    0.1
  6183.719   735.1517    0.1
  6183.737   741.1571    0.1
  6183.754   748.3273    0.1
  6183.772   754.5411    0.1
  6183.789   759.0125    0.1
  6183.806   761.7128    0.1
  6183.824   765.7474    0.1
  6183.841   769.2348    0.1
  6183.859   771.9493    0.1
  6183.876   772.9831    0.1
  6183.893   773.5303    0.1
  6183.911   775.6116    0.1
  6183.928   777.0558    0.1
  6183.946   775.7520    0.1
  6183.963   777.4090    0.1
  6183.980   779.7529    0.1
  6183.998   780.8596    0.1
  6184.015   779.3317    0.1
  6184.033   782.4061    0.1
  6184.050   784.6547    0.1
  6184.067   783.5701    0.1
  6184.085   783.1273    0.1
  6184.102   785.7426    0.1
  6184.119   786.9359    0.1
  6184.137   787.0227    0.1
  6184.154   788.6760    0.1
  6184.172   789.7954    0.1
  6184.189   788.6642    0.1
  6184.206   786.9471    0.1
  6184.224   786.5033    0.1
  6184.241   785.7018    0.1
  6184.259   786.9240    0.1
  6184.276   787.7141    0.1
  6184.293   783.5314    0.1
  6184.311   783.3134    0.1
  6184.328   783.6765    0.1
  6184.346   783.2287    0.1
  6184.363   782.2343    0.1
  6184.380   782.3977    0.1
  6184.398   783.2305    0.1
  6184.415   783.6809    0.1
  6184.433   782.5332    0.1
  6184.450   779.7592    0.1
  6184.467   778.8008    0.1
  6184.485   779.5594    0.1
  6184.502   781.5521    0.1
  6184.520   783.6140    0.1
  6184.537   782.8722    0.1
  6184.554   780.9930    0.1
  6184.572   780.4416    0.1
  6184.589   781.2697    0.1
  6184.607   780.1994    0.1
  6184.624   777.9196    0.1
  6184.641   777.3674    0.1
  6184.659   780.9372    0.1
  6184.676   780.4285    0.1
  6184.694   778.3973    0.1
  6184.711   779.3662    0.1
  6184.728   779.9345    0.1
  6184.746   779.3106    0.1
  6184.763   778.4635    0.1
  6184.781   779.3042    0.1
  6184.798   779.3100    0.1
  6184.815   778.4710    0.1
  6184.833   778.1472    0.1
  6184.850   778.6317    0.1
  6184.868   776.7227    0.1
  6184.885   775.1454    0.1
  6184.902   773.4003    0.1
  6184.920   769.6958    0.1
  6184.937   766.9551    0.1
  6184.955   766.5639    0.1
  6184.972   767.0023    0.1
  6184.989   765.8864    0.1
  6185.007   766.3526    0.1
  6185.024   763.9042    0.1
  6185.042   761.4958    0.1
  6185.059   762.9111    0.1
  6185.076   762.3358    0.1
  6185.094   762.2500    0.1
  6185.111   762.8442    0.1
  6185.129   762.4079    0.1
  6185.146   759.2034    0.1
  6185.163   757.8811    0.1
  6185.181   755.6926    0.1
  6185.198   752.3172    0.1
  6185.216   745.3402    0.1
  6185.233   738.7567    0.1
  6185.250   732.5131    0.1
  6185.268   727.4055    0.1
  6185.285   721.1587    0.1
  6185.303   712.0979    0.1
  6185.320   703.9349    0.1
  6185.337   696.2891    0.1
  6185.355   690.6784    0.1
  6185.372   685.2158    0.1
  6185.390   683.2869    0.1
  6185.407   684.5201    0.1
  6185.424   685.2577    0.1
  6185.442   687.9991    0.1
  6185.459   692.4977    0.1
  6185.477   698.4486    0.1
  6185.494   707.0478    0.1
  6185.511   714.9306    0.1
  6185.529   722.6423    0.1
  6185.546   731.1104    0.1
  6185.564   736.8773    0.1
  6185.581   743.1181    0.1
  6185.598   750.7355    0.1
  6185.616   756.5163    0.1
  6185.633   756.2153    0.1
  6185.651   755.9626    0.1
  6185.668   754.6883    0.1
  6185.685   750.9562    0.1
  6185.703   745.6944    0.1
  6185.720   738.9705    0.1
  6185.738   733.0368    0.1
  6185.755   725.6462    0.1
  6185.772   715.8754    0.1
  6185.790   704.8881    0.1
  6185.807   696.3363    0.1
  6185.825   689.1146    0.1
  6185.842   680.2924    0.1
  6185.859   676.1969    0.1
  6185.877   671.7331    0.1
  6185.894   668.2395    0.1
  6185.912   668.1889    0.1
  6185.929   672.0841    0.1
  6185.946   676.2131    0.1
  6185.964   681.7381    0.1
  6185.981   687.0776    0.1
  6185.999   696.6894    0.1
  6186.016   705.9835    0.1
  6186.033   713.8414    0.1
  6186.051   723.6853    0.1
  6186.068   731.0256    0.1
  6186.086   737.6391    0.1
  6186.103   743.6419    0.1
  6186.120   747.3258    0.1
  6186.138   753.1194    0.1
  6186.155   753.6341    0.1
  6186.173   752.3934    0.1
  6186.190   750.0686    0.1
  6186.207   742.9856    0.1
  6186.225   735.6575    0.1
  6186.242   727.8009    0.1
  6186.260   717.4043    0.1
  6186.277   705.3840    0.1
  6186.294   690.8347    0.1
  6186.312   675.7720    0.1
  6186.329   661.4480    0.1
  6186.346   643.7593    0.1
  6186.364   626.5863    0.1
  6186.381   614.6695    0.1
  6186.399   606.3534    0.1
  6186.416   599.2036    0.1
  6186.433   597.9144    0.1
  6186.451   600.9584    0.1
  6186.468   606.7205    0.1
  6186.486   613.0476    0.1
  6186.503   627.2175    0.1
  6186.520   641.2596    0.1
  6186.538   653.7309    0.1
  6186.555   668.9340    0.1
  6186.573   688.0470    0.1
  6186.590   703.7352    0.1
  6186.607   715.8698    0.1
  6186.625   727.2019    0.1
  6186.642   738.7458    0.1
  6186.660   747.6892    0.1
  6186.677   753.3742    0.1
  6186.694   757.1615    0.1
  6186.712   763.0344    0.1
  6186.729   762.7208    0.1
  6186.747   761.7084    0.1
  6186.764   761.9773    0.1
  6186.781   760.5230    0.1
  6186.799   761.2244    0.1
  6186.816   757.9368    0.1
  6186.834   752.8784    0.1
  6186.851   750.2413    0.1
  6186.868   745.2019    0.1
  6186.886   741.8705    0.1
  6186.903   738.9291    0.1
  6186.921   733.8046    0.1
  6186.938   730.1479    0.1
  6186.955   725.3287    0.1
  6186.973   720.1701    0.1
  6186.990   716.2710    0.1
  6187.008   711.0183    0.1
  6187.025   706.4870    0.1
  6187.042   703.0732    0.1
  6187.060   699.6387    0.1
  6187.077   698.8991    0.1
  6187.095   699.0851    0.1
  6187.112   699.6701    0.1
  6187.129   700.9637    0.1
  6187.147   705.0593    0.1
  6187.164   710.9133    0.1
  6187.182   716.9395    0.1
  6187.199   722.5577    0.1
  6187.216   729.1416    0.1
  6187.234   738.4865    0.1
  6187.251   745.0439    0.1
  6187.269   751.0967    0.1
  6187.286   757.2565    0.1
  6187.303   762.1184    0.1
  6187.321   764.5405    0.1
  6187.338   766.6526    0.1
  6187.356   767.9655    0.1
  6187.373   767.6681    0.1
  6187.390   767.0328    0.1
  6187.408   763.9128    0.1
  6187.425   758.9460    0.1
  6187.443   752.5501    0.1
  6187.460   744.1703    0.1
  6187.477   733.1562    0.1
  6187.495   720.6533    0.1
  6187.512   704.9032    0.1
  6187.530   684.6979    0.1
  6187.547   666.5734    0.1
  6187.564   645.8987    0.1
  6187.582   624.9827    0.1
  6187.599   600.2516    0.1
  6187.617   580.4159    0.1
  6187.634   563.7487    0.1
  6187.651   545.0999    0.1
  6187.669   528.5865    0.1
  6187.686   517.0573    0.1
  6187.704   514.3990    0.1
  6187.721   517.9372    0.1
  6187.738   529.5218    0.1
  6187.756   542.0866    0.1
  6187.773   560.5023    0.1
  6187.791   580.6133    0.1
  6187.808   605.0772    0.1
  6187.825   629.5180    0.1
  6187.843   650.6047    0.1
  6187.860   672.7632    0.1
  6187.878   693.2837    0.1
  6187.895   713.7957    0.1
  6187.912   729.8645    0.1
  6187.930   742.4511    0.1
  6187.947   753.8352    0.1
  6187.965   762.0181    0.1
  6187.982   766.2844    0.1
  6187.999   770.0534    0.1
  6188.017   774.6207    0.1
  6188.034   776.4806    0.1
  6188.052   777.0235    0.1
  6188.069   777.2586    0.1
  6188.086   777.5622    0.1
  6188.104   775.5089    0.1
  6188.121   774.6611    0.1
  6188.139   773.7559    0.1
  6188.156   772.9484    0.1
  6188.173   770.5880    0.1
  6188.191   770.7797    0.1
  6188.208   772.2290    0.1
  6188.226   772.2046    0.1
  6188.243   770.1961    0.1
  6188.260   771.4922    0.1
  6188.278   772.6909    0.1
  6188.295   774.2209    0.1
  6188.313   776.4519    0.1
  6188.330   776.3914    0.1
  6188.347   777.4505    0.1
  6188.365   778.3277    0.1
  6188.382   776.4408    0.1
  6188.400   773.0748    0.1
  6188.417   772.6617    0.1
  6188.434   771.9181    0.1
  6188.452   766.9643    0.1
  6188.469   757.7902    0.1
  6188.487   749.2639    0.1
  6188.504   740.3592    0.1
  6188.521   729.9721    0.1
  6188.539   715.9367    0.1
  6188.556   701.0007    0.1
  6188.574   686.0788    0.1
  6188.591   671.1028    0.1
  6188.608   655.4639    0.1
  6188.626   638.9180    0.1
  6188.643   623.7848    0.1
  6188.660   613.3215    0.1
  6188.678   607.0115    0.1
  6188.695   601.4877    0.1
  6188.713   600.0986    0.1
  6188.730   602.0714    0.1
  6188.747   607.4327    0.1
  6188.765   613.9466    0.1
  6188.782   626.2302    0.1
  6188.800   640.8071    0.1
  6188.817   654.4876    0.1
  6188.834   668.0422    0.1
  6188.852   682.7569    0.1
  6188.869   698.0267    0.1
  6188.887   709.7536    0.1
  6188.904   718.8590    0.1
  6188.921   725.2799    0.1
  6188.939   731.4811    0.1
  6188.956   736.8432    0.1
  6188.974   739.6821    0.1
  6188.991   740.6384    0.1
  6189.008   741.0768    0.1
  6189.026   740.1651    0.1
  6189.043   741.5018    0.1
  6189.061   742.9216    0.1
  6189.078   744.9254    0.1
  6189.095   743.5630    0.1
  6189.113   743.8679    0.1
  6189.130   747.2082    0.1
  6189.148   750.0659    0.1
  6189.165   753.1275    0.1
  6189.182   757.2069    0.1
  6189.200   761.1647    0.1
  6189.217   766.0397    0.1
  6189.235   770.0685    0.1
  6189.252   772.8224    0.1
  6189.269   775.8110    0.1
  6189.287   779.3552    0.1
  6189.304   780.7744    0.1
  6189.322   782.5850    0.1
  6189.339   783.2654    0.1
  6189.356   782.5206    0.1
  6189.374   783.0935    0.1
  6189.391   785.7235    0.1
  6189.409   786.3206    0.1
  6189.426   785.5884    0.1
  6189.443   784.1398    0.1
  6189.461   787.0721    0.1
  6189.478   787.1138    0.1
  6189.496   785.6635    0.1
  6189.513   784.7634    0.1
  6189.530   787.8718    0.1
  6189.548   788.3227    0.1
  6189.565   787.8314    0.1
  6189.583   787.6081    0.1
  6189.600   786.2299    0.1
  6189.617   784.6524    0.1
  6189.635   787.5137    0.1
  6189.652   789.8503    0.1
  6189.670   789.5316    0.1
  6189.687   789.9033    0.1
  6189.704   789.9469    0.1
  6189.722   788.2482    0.1
  6189.739   787.8288    0.1
  6189.757   789.9736    0.1
  6189.774   788.2685    0.1
  6189.791   788.1013    0.1
  6189.809   789.1253    0.1
  6189.826   787.0900    0.1
  6189.844   786.2092    0.1
  6189.861   786.0046    0.1
  6189.878   784.6741    0.1
  6189.896   782.0085    0.1
  6189.913   781.1166    0.1
  6189.931   777.3177    0.1
  6189.948   775.0492    0.1
  6189.965   773.8231    0.1
  6189.983   771.1413    0.1
  6190.000   769.5807    0.1
  6190.018   766.7663    0.1
  6190.035   764.2997    0.1
  6190.052   762.8763    0.1
  6190.070   761.5443    0.1
  6190.087   759.8771    0.1
  6190.105   758.1669    0.1
  6190.122   757.6248    0.1
  6190.139   756.6492    0.1
  6190.157   757.7794    0.1
  6190.174   761.0590    0.1
  6190.192   764.6317    0.1
  6190.209   766.0170    0.1
  6190.226   767.9766    0.1
  6190.244   770.4214    0.1
  6190.261   771.9341    0.1
  6190.279   774.0098    0.1
  6190.296   776.2059    0.1
  6190.313   776.3380    0.1
  6190.331   777.1253    0.1
  6190.348   777.5544    0.1
  6190.366   775.8743    0.1
  6190.383   777.6576    0.1
  6190.400   779.2915    0.1
  6190.418   779.5676    0.1
  6190.435   779.7414    0.1
  6190.453   778.5592    0.1
  6190.470   776.8490    0.1
  6190.487   774.8085    0.1
  6190.505   771.9756    0.1
  6190.522   770.0566    0.1
  6190.540   766.4526    0.1
  6190.557   760.0492    0.1
  6190.574   753.8342    0.1
  6190.592   749.8712    0.1
  6190.609   741.3102    0.1
  6190.627   729.1081    0.1
  6190.644   715.4470    0.1
  6190.661   697.5847    0.1
  6190.679   681.2411    0.1
  6190.696   656.9296    0.1
  6190.714   630.8613    0.1
  6190.731   606.2824    0.1
  6190.748   578.2791    0.1
  6190.766   546.9897    0.1
  6190.783   510.5089    0.1
  6190.801   481.0651    0.1
  6190.818   455.5625    0.1
  6190.835   429.8199    0.1
  6190.853   408.0861    0.1
  6190.870   392.9475    0.1
  6190.887   384.0263    0.1
  6190.905   379.2556    0.1
  6190.922   383.2492    0.1
  6190.940   390.8965    0.1
  6190.957   404.0475    0.1
  6190.974   417.0414    0.1
  6190.992   429.5599    0.1
  6191.009   443.8779    0.1
  6191.027   452.8659    0.1
  6191.044   458.4675    0.1
  6191.061   461.0631    0.1
  6191.079   460.3097    0.1
  6191.096   452.0094    0.1
  6191.114   441.1733    0.1
  6191.131   423.1996    0.1
  6191.148   404.3473    0.1
  6191.166   378.2240    0.1
  6191.183   353.6027    0.1
  6191.201   332.1190    0.1
  6191.218   310.4660    0.1
  6191.235   291.6655    0.1
  6191.253   278.8252    0.1
  6191.270   273.7548    0.1
  6191.288   273.4091    0.1
  6191.305   279.9063    0.1
  6191.322   295.6381    0.1
  6191.340   316.2909    0.1
  6191.357   339.4419    0.1
  6191.375   365.6211    0.1
  6191.392   401.0539    0.1
  6191.409   435.2001    0.1
  6191.427   469.5467    0.1
  6191.444   501.6223    0.1
  6191.462   533.9885    0.1
  6191.479   573.5166    0.1
  6191.496   602.7878    0.1
  6191.514   628.3329    0.1
  6191.531   650.0604    0.1
  6191.549   674.7079    0.1
  6191.566   692.5116    0.1
  6191.583   703.7512    0.1
  6191.601   716.5974    0.1
  6191.618   728.4856    0.1
  6191.636   735.4375    0.1
  6191.653   739.9077    0.1
  6191.670   742.7916    0.1
  6191.688   743.3136    0.1
  6191.705   743.7023    0.1
  6191.723   744.1932    0.1
  6191.740   744.4989    0.1
  6191.757   745.1152    0.1
  6191.775   746.0536    0.1
  6191.792   746.6013    0.1
  6191.810   747.4202    0.1
  6191.827   747.8968    0.1
  6191.844   748.0506    0.1
  6191.862   747.5465    0.1
  6191.879   747.4785    0.1
  6191.897   750.0940    0.1
  6191.914   752.6079    0.1
  6191.931   754.0645    0.1
  6191.949   750.6859    0.1
  6191.966   751.2668    0.1
  6191.984   752.3607    0.1
  6192.001   753.5294    0.1
  6192.018   755.9929    0.1
  6192.036   755.3193    0.1
  6192.053   754.8583    0.1
  6192.071   755.8463    0.1
  6192.088   757.1561    0.1
  6192.105   757.4880    0.1
  6192.123   757.5061    0.1
  6192.140   756.9131    0.1
  6192.158   755.9071    0.1
  6192.175   754.0690    0.1
  6192.192   753.6603    0.1
  6192.210   755.4558    0.1
  6192.227   754.9793    0.1
  6192.245   752.8284    0.1
  6192.262   754.7233    0.1
  6192.279   753.9082    0.1
  6192.297   753.6022    0.1
  6192.314   755.3691    0.1
  6192.332   759.2565    0.1
  6192.349   760.6935    0.1
  6192.366   764.1736    0.1
  6192.384   765.7742    0.1
  6192.401   766.9155    0.1
  6192.419   772.0879    0.1
  6192.436   774.5920    0.1
  6192.453   775.7789    0.1
  6192.471   777.9977    0.1
  6192.488   780.3949    0.1
  6192.506   782.2214    0.1
  6192.523   781.8699    0.1
  6192.540   779.8658    0.1
  6192.558   779.0466    0.1
  6192.575   778.4257    0.1
  6192.593   777.9028    0.1
  6192.610   776.5355    0.1
  6192.627   774.5606    0.1
  6192.645   773.6429    0.1
  6192.662   773.3072    0.1
  6192.680   774.1207    0.1
  6192.697   776.3688    0.1
  6192.714   777.7495    0.1
  6192.732   776.6705    0.1
  6192.749   775.6437    0.1
  6192.767   778.5540    0.1
  6192.784   779.9715    0.1
  6192.801   780.6065    0.1
  6192.819   781.5951    0.1
  6192.836   782.5901    0.1
  6192.854   784.7927    0.1
  6192.871   786.4682    0.1
  6192.888   786.3498    0.1
  6192.906   785.7940    0.1
  6192.923   786.4738    0.1
  6192.941   787.1234    0.1
  6192.958   787.1553    0.1
  6192.975   786.7003    0.1
  6192.993   786.8891    0.1
  6193.010   783.6615    0.1
  6193.028   781.3950    0.1
  6193.045   780.9877    0.1
  6193.062   780.3626    0.1
  6193.080   777.8643    0.1
  6193.097   776.0217    0.1
  6193.115   774.0498    0.1
  6193.132   772.6128    0.1
  6193.149   772.3893    0.1
  6193.167   771.9417    0.1
  6193.184   771.1723    0.1
  6193.201   767.8777    0.1
  6193.219   764.9000    0.1
  6193.236   765.9784    0.1
  6193.254   766.6043    0.1
  6193.271   764.8552    0.1
  6193.288   761.4651    0.1
  6193.306   758.0029    0.1
  6193.323   759.1395    0.1
  6193.341   758.1839    0.1
  6193.358   755.3765    0.1
  6193.375   755.3460    0.1
  6193.393   756.9500    0.1
  6193.410   755.8835    0.1
  6193.428   757.9765    0.1
  6193.445   760.5047    0.1
  6193.462   763.4388    0.1
  6193.480   766.3977    0.1
  6193.497   767.9028    0.1
  6193.515   770.2021    0.1
  6193.532   773.7667    0.1
  6193.549   776.3146    0.1
  6193.567   778.9566    0.1
  6193.584   782.7634    0.1
  6193.602   785.1430    0.1
  6193.619   787.1307    0.1
  6193.636   788.9928    0.1
  6193.654   788.4216    0.1
  6193.671   789.2975    0.1
  6193.689   789.7374    0.1
  6193.706   790.5523    0.1
  6193.723   791.3721    0.1
  6193.741   789.5648    0.1
  6193.758   788.1754    0.1
  6193.776   787.6343    0.1
  6193.793   785.4347    0.1
  6193.810   782.2521    0.1
  6193.828   781.1951    0.1
  6193.845   779.3742    0.1
  6193.863   776.2428    0.1
  6193.880   771.4949    0.1
  6193.897   766.3642    0.1
  6193.915   762.1448    0.1
  6193.932   755.7107    0.1
  6193.950   749.7034    0.1
  6193.967   742.4959    0.1
  6193.984   731.2180    0.1
  6194.002   723.1207    0.1
  6194.019   715.9866    0.1
  6194.037   709.6324    0.1
  6194.054   703.7642    0.1
  6194.071   698.6226    0.1
  6194.089   693.3814    0.1
  6194.106   692.3274    0.1
  6194.124   693.1080    0.1
  6194.141   693.8462    0.1
  6194.158   699.1009    0.1
  6194.176   704.5147    0.1
  6194.193   710.8404    0.1
  6194.211   717.8025    0.1
  6194.228   726.4453    0.1
  6194.245   736.8304    0.1
  6194.263   744.4761    0.1
  6194.280   753.4610    0.1
  6194.298   759.8658    0.1
  6194.315   764.8131    0.1
  6194.332   771.5800    0.1
  6194.350   776.5361    0.1
  6194.367   780.5376    0.1
  6194.385   783.6128    0.1
  6194.402   784.4340    0.1
  6194.419   781.6702    0.1
  6194.437   779.4491    0.1
  6194.454   780.6841    0.1
  6194.472   780.4955    0.1
  6194.489   777.1826    0.1
  6194.506   777.0623    0.1
  6194.524   775.8994    0.1
  6194.541   774.1494    0.1
  6194.559   772.3785    0.1
  6194.576   770.8015    0.1
  6194.593   768.9709    0.1
  6194.611   768.6349    0.1
  6194.628   770.5523    0.1
  6194.646   772.4603    0.1
  6194.663   773.7907    0.1
  6194.680   774.6998    0.1
  6194.698   776.4877    0.1
  6194.715   778.1207    0.1
  6194.733   777.6050    0.1
  6194.750   778.3469    0.1
  6194.767   777.6235    0.1
  6194.785   776.6770    0.1
  6194.802   775.0440    0.1
  6194.820   772.5551    0.1
  6194.837   770.8921    0.1
  6194.854   769.2666    0.1
  6194.872   767.9854    0.1
  6194.889   765.4661    0.1
  6194.907   761.3790    0.1
  6194.924   755.1349    0.1
  6194.941   752.2018    0.1
  6194.959   749.1484    0.1
  6194.976   742.0034    0.1
  6194.994   734.8442    0.1
  6195.011   727.2283    0.1
  6195.028   719.3679    0.1
  6195.046   711.7467    0.1
  6195.063   702.3307    0.1
  6195.081   697.6004    0.1
  6195.098   691.2704    0.1
  6195.115   685.7875    0.1
  6195.133   682.9849    0.1
  6195.150   681.5262    0.1
  6195.168   681.6080    0.1
  6195.185   684.2209    0.1
  6195.202   690.2344    0.1
  6195.220   696.4750    0.1
  6195.237   702.5801    0.1
  6195.255   710.4416    0.1
  6195.272   720.9050    0.1
  6195.289   729.8634    0.1
  6195.307   737.0801    0.1
  6195.324   743.7444    0.1
  6195.342   750.3335    0.1
  6195.359   755.8404    0.1
  6195.376   759.3180    0.1
  6195.394   761.5612    0.1
  6195.411   763.0305    0.1
  6195.428   766.7755    0.1
  6195.446   769.9821    0.1
  6195.463   771.0596    0.1
  6195.481   771.8987    0.1
  6195.498   772.8984    0.1
  6195.515   772.6125    0.1
  6195.533   774.2544    0.1
  6195.550   775.2213    0.1
  6195.568   775.2847    0.1
  6195.585   775.1893    0.1
  6195.602   777.5167    0.1
  6195.620   778.2048    0.1
  6195.637   778.4620    0.1
  6195.655   777.8644    0.1
  6195.672   775.2261    0.1
  6195.689   773.9751    0.1
  6195.707   773.5144    0.1
  6195.724   771.0764    0.1
  6195.742   768.4908    0.1
  6195.759   767.8442    0.1
  6195.776   767.6553    0.1
  6195.794   762.6684    0.1
  6195.811   760.7201    0.1
  6195.829   760.8982    0.1
  6195.846   759.5145    0.1
  6195.863   758.5079    0.1
  6195.881   758.6761    0.1
  6195.898   760.5274    0.1
  6195.916   762.3233    0.1
  6195.933   765.4345    0.1
  6195.950   769.1639    0.1
  6195.968   769.3580    0.1
  6195.985   772.5721    0.1
  6196.003   775.7560    0.1
  6196.020   777.9700    0.1
  6196.037   779.7099    0.1
  6196.055   778.5002    0.1
  6196.072   780.7687    0.1
  6196.090   782.7872    0.1
  6196.107   781.3322    0.1
  6196.124   780.3523    0.1
  6196.142   782.3960    0.1
  6196.159   784.4561    0.1
  6196.177   784.5723    0.1
  6196.194   782.6665    0.1
  6196.211   780.6881    0.1
  6196.229   778.5548    0.1
  6196.246   776.8887    0.1
  6196.264   775.9541    0.1
  6196.281   775.6313    0.1
  6196.298   774.7505    0.1
  6196.316   774.3779    0.1
  6196.333   772.6905    0.1
  6196.351   772.6976    0.1
  6196.368   775.5208    0.1
  6196.385   775.0564    0.1
  6196.403   775.0968    0.1
  6196.420   776.8399    0.1
  6196.438   778.4461    0.1
  6196.455   780.8594    0.1
  6196.472   783.2674    0.1
  6196.490   783.4173    0.1
  6196.507   783.5374    0.1
  6196.525   784.7691    0.1
  6196.542   786.2005    0.1
  6196.559   787.2424    0.1
  6196.577   788.5058    0.1
  6196.594   786.8425    0.1
  6196.612   786.3738    0.1
  6196.629   788.0200    0.1
  6196.646   789.0426    0.1
  6196.664   789.0885    0.1
  6196.681   789.0651    0.1
  6196.699   790.1652    0.1
  6196.716   791.3716    0.1
  6196.733   791.6136    0.1
  6196.751   793.1475    0.1
  6196.768   794.1585    0.1
  6196.786   795.0246    0.1
  6196.803   796.7781    0.1
  6196.820   798.4086    0.1
  6196.838   796.7468    0.1
  6196.855   795.2198    0.1
  6196.873   795.7495    0.1
  6196.890   795.6069    0.1
  6196.907   795.6272    0.1
  6196.925   798.0371    0.1
  6196.942   796.4886    0.1
  6196.960   794.7557    0.1
  6196.977   793.3597    0.1
  6196.994   790.6829    0.1
  6197.012   790.2748    0.1
  6197.029   788.5094    0.1
  6197.047   787.4148    0.1
  6197.064   785.6650    0.1
  6197.081   782.8500    0.1
  6197.099   781.7340    0.1
  6197.116   777.7809    0.1
  6197.134   777.0242    0.1
  6197.151   776.7047    0.1
  6197.168   774.3209    0.1
  6197.186   773.8618    0.1
  6197.203   774.3706    0.1
  6197.221   772.9580    0.1
  6197.238   772.5938    0.1
  6197.255   774.9312    0.1
  6197.273   774.4867    0.1
  6197.290   773.4072    0.1
  6197.308   777.5046    0.1
  6197.325   780.5800    0.1
  6197.342   782.6345    0.1
  6197.360   784.7612    0.1
  6197.377   785.1272    0.1
  6197.395   786.0123    0.1
  6197.412   787.0900    0.1
  6197.429   788.0717    0.1
  6197.447   788.5572    0.1
  6197.464   788.6138    0.1
  6197.482   786.8295    0.1
  6197.499   785.3225    0.1
  6197.516   784.6062    0.1
  6197.534   782.9395    0.1
  6197.551   780.4733    0.1
  6197.569   780.6144    0.1
  6197.586   780.0782    0.1
  6197.603   778.5121    0.1
  6197.621   777.1117    0.1
  6197.638   777.9685    0.1
  6197.655   775.9381    0.1
  6197.673   775.9007    0.1
  6197.690   778.9933    0.1
  6197.708   779.9192    0.1
  6197.725   778.3429    0.1
  6197.742   779.6520    0.1
  6197.760   781.8771    0.1
  6197.777   782.6108    0.1
  6197.795   784.4481    0.1
  6197.812   786.8820    0.1
  6197.829   789.0479    0.1
  6197.847   789.9686    0.1
  6197.864   791.9049    0.1
  6197.882   793.0069    0.1
  6197.899   792.5783    0.1
  6197.916   793.1864    0.1
  6197.934   793.7761    0.1
  6197.951   792.3881    0.1
  6197.969   792.3764    0.1
  6197.986   793.0137    0.1
  6198.003   792.0149    0.1
  6198.021   793.3051    0.1
  6198.038   794.8385    0.1
  6198.056   794.2224    0.1
  6198.073   792.9326    0.1
  6198.090   792.4129    0.1
  6198.108   791.2637    0.1
  6198.125   790.4781    0.1
  6198.143   789.7221    0.1
  6198.160   789.2738    0.1
  6198.177   788.9803    0.1
  6198.195   786.0916    0.1
  6198.212   784.1554    0.1
  6198.230   781.8949    0.1
  6198.247   780.7748    0.1
  6198.264   780.7181    0.1
  6198.282   779.1183    0.1
  6198.299   777.7898    0.1
  6198.317   777.9770    0.1
  6198.334   778.9109    0.1
  6198.351   779.9432    0.1
  6198.369   778.1597    0.1
  6198.386   778.7097    0.1
  6198.404   782.2272    0.1
  6198.421   784.4012    0.1
  6198.438   785.4064    0.1
  6198.456   787.4776    0.1
  6198.473   791.1690    0.1
  6198.491   793.9746    0.1
  6198.508   792.4520    0.1
  6198.525   790.9865    0.1
  6198.543   791.6179    0.1
  6198.560   790.5880    0.1
  6198.578   789.7645    0.1
  6198.595   787.5861    0.1
  6198.612   781.7824    0.1
  6198.630   773.8573    0.1
  6198.647   768.7030    0.1
  6198.665   758.4336    0.1
  6198.682   746.7164    0.1
  6198.699   735.0978    0.1
  6198.717   717.0079    0.1
  6198.734   702.2847    0.1
  6198.752   683.5512    0.1
  6198.769   661.5880    0.1
  6198.786   642.1255    0.1
  6198.804   616.4777    0.1
  6198.821   597.8358    0.1
  6198.839   579.6139    0.1
  6198.856   560.7831    0.1
  6198.873   549.2478    0.1
  6198.891   541.1897    0.1
  6198.908   537.4446    0.1
  6198.926   537.1248    0.1
  6198.943   544.0960    0.1
  6198.960   553.0851    0.1
  6198.978   566.6229    0.1
  6198.995   580.4467    0.1
  6199.013   594.7887    0.1
  6199.030   612.0420    0.1
  6199.047   627.9483    0.1
  6199.065   640.8177    0.1
  6199.082   651.7921    0.1
  6199.100   661.4027    0.1
  6199.117   668.7337    0.1
  6199.134   673.1200    0.1
  6199.152   680.0302    0.1
  6199.169   682.4438    0.1
  6199.187   683.1891    0.1
  6199.204   688.9268    0.1
  6199.221   692.9924    0.1
  6199.239   696.8361    0.1
  6199.256   702.4906    0.1
  6199.274   710.0690    0.1
  6199.291   719.6455    0.1
  6199.308   726.5910    0.1
  6199.326   734.4617    0.1
  6199.343   745.1778    0.1
  6199.361   751.6725    0.1
  6199.378   756.6967    0.1
  6199.395   761.9973    0.1
  6199.413   767.6935    0.1
  6199.430   770.1527    0.1
  6199.448   771.7349    0.1
  6199.465   774.3287    0.1
  6199.482   775.7540    0.1
  6199.500   776.9850    0.1
  6199.517   775.4218    0.1
  6199.535   775.9613    0.1
  6199.552   776.2628    0.1
  6199.569   775.8977    0.1
  6199.587   776.6435    0.1
  6199.604   777.9326    0.1
  6199.622   777.0316    0.1
  6199.639   776.5183    0.1
  6199.656   775.4782    0.1
  6199.674   773.6757    0.1
  6199.691   769.1895    0.1
  6199.709   764.8227    0.1
  6199.726   761.3178    0.1
  6199.743   751.2805    0.1
  6199.761   741.5981    0.1
  6199.778   728.4921    0.1
  6199.796   712.1982    0.1
  6199.813   696.2746    0.1
  6199.830   671.4993    0.1
  6199.848   648.4733    0.1
  6199.865   620.2756    0.1
  6199.883   590.2043    0.1
  6199.900   565.2195    0.1
  6199.917   528.6462    0.1
  6199.935   500.2312    0.1
  6199.952   473.6487    0.1
  6199.969   448.2735    0.1
  6199.987   430.6515    0.1
  6200.004   416.1889    0.1
  6200.022   409.2522    0.1
  6200.039   409.1935    0.1
  6200.056   418.5019    0.1
  6200.074   429.9315    0.1
  6200.091   450.4539    0.1
  6200.109   476.2913    0.1
  6200.126   502.5524    0.1
  6200.143   535.9727    0.1
  6200.161   563.1559    0.1
  6200.178   593.0866    0.1
  6200.196   624.7328    0.1
  6200.213   647.1596    0.1
  6200.230   672.2620    0.1
  6200.248   689.9888    0.1
  6200.265   705.4469    0.1
  6200.283   721.2220    0.1
  6200.300   731.3081    0.1
  6200.317   741.2128    0.1
  6200.335   747.6727    0.1
  6200.352   752.7568    0.1
  6200.370   757.9543    0.1
  6200.387   760.0103    0.1
  6200.404   762.4620    0.1
  6200.422   764.5653    0.1
  6200.439   764.8380    0.1
  6200.457   765.0926    0.1
  6200.474   766.7215    0.1
  6200.491   769.4961    0.1
  6200.509   767.5790    0.1
  6200.526   763.6645    0.1
  6200.544   764.2003    0.1
  6200.561   764.5034    0.1
  6200.578   762.5119    0.1
  6200.596   759.9705    0.1
  6200.613   759.5377    0.1
  6200.631   759.0900    0.1
  6200.648   757.5039    0.1
  6200.665   756.3365    0.1
  6200.683   755.3670    0.1
  6200.700   753.7865    0.1
  6200.718   752.4148    0.1
  6200.735   750.9810    0.1
  6200.752   750.4934    0.1
  6200.770   750.5749    0.1
  6200.787   749.1210    0.1
  6200.805   750.4157    0.1
  6200.822   751.3787    0.1
  6200.839   752.0072    0.1
  6200.857   751.5380    0.1
  6200.874   751.6872    0.1
  6200.892   754.8503    0.1
  6200.909   756.1959    0.1
  6200.926   755.9678    0.1
  6200.944   757.3811    0.1
  6200.961   760.2437    0.1
  6200.979   763.7654    0.1
  6200.996   768.0881    0.1
  6201.013   770.1452    0.1
  6201.031   772.7968    0.1
  6201.048   774.6392    0.1
  6201.066   775.9448    0.1
  6201.083   780.4073    0.1
  6201.100   780.9135    0.1
  6201.118   781.0799    0.1
  6201.135   781.2233    0.1
  6201.153   781.7272    0.1
  6201.170   783.8557    0.1
  6201.187   784.7498    0.1
  6201.205   784.9251    0.1
  6201.222   785.0004    0.1
  6201.240   784.7827    0.1
  6201.257   784.0072    0.1
  6201.274   782.5394    0.1
  6201.292   780.2847    0.1
  6201.309   776.7405    0.1
  6201.327   774.7741    0.1
  6201.344   771.4856    0.1
  6201.361   767.4374    0.1
  6201.379   765.3377    0.1
  6201.396   763.0446    0.1
  6201.414   759.4006    0.1
  6201.431   755.0060    0.1
  6201.448   753.4377    0.1
  6201.466   753.0103    0.1
  6201.483   753.4995    0.1
  6201.501   754.0307    0.1
  6201.518   755.7884    0.1
  6201.535   757.3879    0.1
  6201.553   759.4563    0.1
  6201.570   763.6703    0.1
  6201.588   769.3773    0.1
  6201.605   772.4628    0.1
  6201.622   774.3663    0.1
  6201.640   776.9485    0.1
  6201.657   780.4613    0.1
  6201.675   785.5434    0.1
  6201.692   788.7111    0.1
  6201.709   789.6851    0.1
  6201.727   790.6624    0.1
  6201.744   792.5483    0.1
  6201.762   792.3480    0.1
  6201.779   791.7722    0.1
  6201.796   792.9077    0.1
  6201.814   792.1946    0.1
  6201.831   790.8318    0.1
  6201.849   790.3378    0.1
  6201.866   789.0520    0.1
  6201.883   788.1321    0.1
  6201.901   786.4648    0.1
  6201.918   785.9497    0.1
  6201.936   787.3518    0.1
  6201.953   786.8710    0.1
  6201.970   784.0622    0.1
  6201.988   782.7176    0.1
  6202.005   780.0140    0.1
  6202.023   776.6383    0.1
  6202.040   776.3571    0.1
  6202.057   777.1832    0.1
  6202.075   777.4544    0.1
  6202.092   777.4886    0.1
  6202.110   776.6322    0.1
  6202.127   777.6625    0.1
  6202.144   777.9552    0.1
  6202.162   777.6300    0.1
  6202.179   778.3800    0.1
  6202.196   778.6834    0.1
  6202.214   777.6511    0.1
  6202.231   776.1279    0.1
  6202.249   774.0713    0.1
  6202.266   771.0419    0.1
  6202.283   768.8027    0.1
  6202.301   767.6994    0.1
  6202.318   764.4222    0.1
  6202.336   764.5183    0.1
  6202.353   764.9607    0.1
  6202.370   764.8577    0.1
  6202.388   762.9736    0.1
  6202.405   761.2957    0.1
  6202.423   761.0454    0.1
  6202.440   762.6558    0.1
  6202.457   762.0737    0.1
  6202.475   761.9099    0.1
  6202.492   764.3093    0.1
  6202.510   766.8208    0.1
  6202.527   766.6266    0.1
  6202.544   767.5270    0.1
  6202.562   769.4009    0.1
  6202.579   770.4447    0.1
  6202.597   770.9961    0.1
  6202.614   772.4510    0.1
  6202.631   772.7400    0.1
  6202.649   772.3236    0.1
  6202.666   771.2357    0.1
  6202.684   769.9928    0.1
  6202.701   769.0036    0.1
  6202.718   770.5556    0.1
  6202.736   770.8995    0.1
  6202.753   772.4321    0.1
  6202.771   773.7184    0.1
  6202.788   773.1386    0.1
  6202.805   771.6219    0.1
  6202.823   770.7106    0.1
  6202.840   771.5728    0.1
  6202.858   770.8257    0.1
  6202.875   768.5957    0.1
  6202.892   767.3423    0.1
  6202.910   768.5686    0.1
  6202.927   771.0290    0.1
  6202.945   771.2372    0.1
  6202.962   770.1368    0.1
  6202.979   767.6912    0.1
  6202.997   766.2717    0.1
  6203.014   765.7956    0.1
  6203.032   763.6005    0.1
  6203.049   763.1249    0.1
  6203.066   765.1653    0.1
  6203.084   767.2821    0.1
  6203.101   768.1505    0.1
  6203.119   768.5649    0.1
  6203.136   770.2371    0.1
  6203.153   773.8446    0.1
  6203.171   776.1568    0.1
  6203.188   777.6551    0.1
  6203.206   779.1450    0.1
  6203.223   780.3952    0.1
  6203.240   781.2114    0.1
  6203.258   783.1684    0.1
  6203.275   781.9251    0.1
  6203.293   780.8902    0.1
  6203.310   781.5976    0.1
  6203.327   782.4321    0.1
  6203.345   782.8335    0.1
  6203.362   782.8077    0.1
  6203.380   782.1817    0.1
  6203.397   782.4527    0.1
  6203.414   782.5223    0.1
  6203.432   781.4394    0.1
  6203.449   782.2533    0.1
  6203.467   783.6977    0.1
  6203.484   786.3593    0.1
  6203.501   787.0983    0.1
  6203.519   787.2749    0.1
  6203.536   787.9664    0.1
  6203.554   788.8916    0.1
  6203.571   790.6142    0.1
  6203.588   791.1013    0.1
  6203.606   792.6773    0.1
  6203.623   794.7614    0.1
  6203.641   794.6648    0.1
  6203.658   792.2612    0.1
  6203.675   794.1084    0.1
  6203.693   796.5994    0.1
  6203.710   794.7178    0.1
  6203.728   793.0173    0.1
  6203.745   792.4438    0.1
  6203.762   793.9536    0.1
  6203.780   794.8463    0.1
  6203.797   792.4431    0.1
  6203.815   790.8385    0.1
  6203.832   792.2123    0.1
  6203.849   794.7626    0.1
  6203.867   794.7808    0.1
  6203.884   793.6247    0.1
  6203.902   793.0573    0.1
  6203.919   792.1777    0.1
  6203.936   792.2206    0.1
  6203.954   793.1891    0.1
  6203.971   792.1305    0.1
  6203.989   791.3496    0.1
  6204.006   789.6494    0.1
  6204.023   785.7694    0.1
  6204.041   782.8814    0.1
  6204.058   778.3287    0.1
  6204.076   770.3685    0.1
  6204.093   764.6292    0.1
  6204.110   757.8251    0.1
  6204.128   747.5060    0.1
  6204.145   738.2959    0.1
  6204.163   721.6627    0.1
  6204.180   707.6758    0.1
  6204.197   697.9550    0.1
  6204.215   683.2630    0.1
  6204.232   670.6209    0.1
  6204.250   658.7883    0.1
  6204.267   649.0343    0.1
  6204.284   642.5466    0.1
  6204.302   638.2142    0.1
  6204.319   637.3859    0.1
  6204.337   638.7872    0.1
  6204.354   645.0716    0.1
  6204.371   653.3098    0.1
  6204.389   663.9347    0.1
  6204.406   676.7850    0.1
  6204.424   688.5117    0.1
  6204.441   703.0200    0.1
  6204.458   714.7427    0.1
  6204.476   726.3070    0.1
  6204.493   741.2400    0.1
  6204.510   749.5672    0.1
  6204.528   755.8456    0.1
  6204.545   761.6529    0.1
  6204.563   765.8490    0.1
  6204.580   769.0269    0.1
  6204.597   771.1997    0.1
  6204.615   771.7782    0.1
  6204.632   769.9709    0.1
  6204.650   769.7529    0.1
  6204.667   770.6832    0.1
  6204.684   769.1331    0.1
  6204.702   767.7957    0.1
  6204.719   763.3364    0.1
  6204.737   760.0883    0.1
  6204.754   758.9713    0.1
  6204.771   755.8686    0.1
  6204.789   752.7653    0.1
  6204.806   749.5345    0.1
  6204.824   745.2017    0.1
  6204.841   741.1319    0.1
  6204.858   742.1366    0.1
  6204.876   743.0988    0.1
  6204.893   742.9905    0.1
  6204.911   742.6317    0.1
  6204.928   742.8528    0.1
  6204.945   745.2856    0.1
  6204.963   748.9404    0.1
  6204.980   751.3850    0.1
  6204.998   755.3783    0.1
  6205.015   760.0061    0.1
  6205.032   765.7219    0.1
  6205.050   769.5746    0.1
  6205.067   774.1807    0.1
  6205.085   777.3476    0.1
  6205.102   779.7203    0.1
  6205.119   782.7005    0.1
  6205.137   785.8585    0.1
  6205.154   788.0807    0.1
  6205.172   789.7329    0.1
  6205.189   792.5407    0.1
  6205.206   793.3835    0.1
  6205.224   792.5986    0.1
  6205.241   792.5641    0.1
  6205.259   792.9779    0.1
  6205.276   794.7284    0.1
  6205.293   794.8097    0.1
  6205.311   792.0147    0.1
  6205.328   792.2051    0.1
  6205.346   793.9272    0.1
  6205.363   794.2812    0.1
  6205.380   794.8081    0.1
  6205.398   795.1319    0.1
  6205.415   793.6494    0.1
  6205.433   793.6170    0.1
  6205.450   792.7685    0.1
  6205.467   793.8112    0.1
  6205.485   795.7041    0.1
  6205.502   797.5872    0.1
  6205.520   798.1913    0.1
  6205.537   798.4993    0.1
  6205.554   797.1536    0.1
  6205.572   797.9941    0.1
  6205.589   799.2698    0.1
  6205.607   798.7206    0.1
  6205.624   798.3579    0.1
  6205.641   797.3316    0.1
  6205.659   795.0519    0.1
  6205.676   792.4867    0.1
  6205.694   792.6076    0.1
  6205.711   792.8667    0.1
  6205.728   789.8859    0.1
  6205.746   787.9942    0.1
  6205.763   786.2914    0.1
  6205.781   783.0822    0.1
  6205.798   780.3513    0.1
  6205.815   777.1130    0.1
  6205.833   775.4906    0.1
  6205.850   774.8672    0.1
  6205.868   775.7524    0.1
  6205.885   775.3408    0.1
  6205.902   773.1404    0.1
  6205.920   769.2283    0.1
  6205.937   766.4006    0.1
  6205.955   765.0025    0.1
  6205.972   763.9313    0.1
  6205.989   763.2086    0.1
  6206.007   763.1593    0.1
  6206.024   763.6458    0.1
  6206.042   762.4549    0.1
  6206.059   762.1593    0.1
  6206.076   762.8856    0.1
  6206.094   763.6463    0.1
  6206.111   763.6842    0.1
  6206.129   764.2437    0.1
  6206.146   764.6645    0.1
  6206.163   764.4908    0.1
  6206.181   765.8866    0.1
  6206.198   769.6566    0.1
  6206.216   771.5611    0.1
  6206.233   772.3055    0.1
  6206.250   772.7898    0.1
  6206.268   772.8167    0.1
  6206.285   775.3221    0.1
  6206.303   775.3834    0.1
  6206.320   772.8126    0.1
  6206.337   772.3554    0.1
  6206.355   773.5407    0.1
  6206.372   771.4677    0.1
  6206.390   768.5708    0.1
  6206.407   766.2654    0.1
  6206.424   764.5665    0.1
  6206.442   762.6599    0.1
  6206.459   760.7900    0.1
  6206.477   758.5318    0.1
  6206.494   757.2463    0.1
  6206.511   756.6288    0.1
  6206.529   758.0418    0.1
  6206.546   760.1211    0.1
  6206.564   759.0373    0.1
  6206.581   760.2908    0.1
  6206.598   763.8898    0.1
  6206.616   765.4591    0.1
  6206.633   768.8220    0.1
  6206.651   773.6291    0.1
  6206.668   776.1623    0.1
  6206.685   777.2332    0.1
  6206.703   778.3495    0.1
  6206.720   779.4579    0.1
  6206.737   779.4554    0.1
  6206.755   780.1448    0.1
  6206.772   779.2842    0.1
  6206.790   777.6254    0.1
  6206.807   777.1612    0.1
  6206.824   776.7068    0.1
  6206.842   774.1493    0.1
  6206.859   769.9786    0.1
  6206.877   765.1945    0.1
  6206.894   762.1327    0.1
  6206.911   760.3660    0.1
  6206.929   758.2062    0.1
  6206.946   756.3730    0.1
  6206.964   754.5540    0.1
  6206.981   752.2630    0.1
  6206.998   751.8646    0.1
  6207.016   752.9516    0.1
  6207.033   751.4613    0.1
  6207.051   750.4988    0.1
  6207.068   752.7573    0.1
  6207.085   756.7039    0.1
  6207.103   760.2361    0.1
  6207.120   761.1379    0.1
  6207.138   764.9048    0.1
  6207.155   770.0284    0.1
  6207.172   772.0064    0.1
  6207.190   772.1522    0.1
  6207.207   771.8261    0.1
  6207.225   772.3445    0.1
  6207.242   774.6617    0.1
  6207.259   776.9459    0.1
  6207.277   777.5882    0.1
  6207.294   778.2963    0.1
  6207.312   778.7822    0.1
  6207.329   779.1223    0.1
  6207.346   780.4669    0.1
  6207.364   782.3521    0.1
  6207.381   780.3403    0.1
  6207.399   778.1486    0.1
  6207.416   779.1666    0.1
  6207.433   780.4640    0.1
  6207.451   779.2258    0.1
  6207.468   778.9605    0.1
  6207.486   780.6406    0.1
  6207.503   778.5184    0.1
  6207.520   775.8856    0.1
  6207.538   775.9953    0.1
  6207.555   776.3899    0.1
  6207.573   776.2786    0.1
  6207.590   774.8432    0.1
  6207.607   773.0257    0.1
  6207.625   771.1120    0.1
  6207.642   769.9363    0.1
  6207.660   769.0205    0.1
  6207.677   767.5643    0.1
  6207.694   767.7141    0.1
  6207.712   768.0397    0.1
  6207.729   765.5363    0.1
  6207.747   763.4864    0.1
  6207.764   763.0330    0.1
  6207.781   764.3666    0.1
  6207.799   764.8585    0.1
  6207.816   759.9592    0.1
  6207.834   758.8298    0.1
  6207.851   760.0354    0.1
  6207.868   756.7425    0.1
  6207.886   755.7194    0.1
  6207.903   755.9489    0.1
  6207.921   755.4765    0.1
  6207.938   754.5421    0.1
  6207.955   752.8835    0.1
  6207.973   754.2363    0.1
  6207.990   756.4791    0.1
  6208.008   756.4777    0.1
  6208.025   756.3203    0.1
  6208.042   756.0002    0.1
  6208.060   758.2260    0.1
  6208.077   760.1228    0.1
  6208.095   760.4660    0.1
  6208.112   759.1811    0.1
  6208.129   757.6578    0.1
  6208.147   757.5769    0.1
  6208.164   755.9416    0.1
  6208.182   752.7588    0.1
  6208.199   751.1202    0.1
  6208.216   751.2577    0.1
  6208.234   752.4667    0.1
  6208.251   751.2436    0.1
  6208.269   751.2148    0.1
  6208.286   752.8043    0.1
  6208.303   755.2300    0.1
  6208.321   758.1616    0.1
  6208.338   761.5158    0.1
  6208.356   764.0127    0.1
  6208.373   768.1383    0.1
  6208.390   773.0132    0.1
  6208.408   777.6269    0.1
  6208.425   781.6940    0.1
  6208.443   783.6133    0.1
  6208.460   784.5198    0.1
  6208.477   787.2832    0.1
  6208.495   788.0611    0.1
  6208.512   787.9918    0.1
  6208.530   788.3789    0.1
  6208.547   788.0034    0.1
  6208.564   786.5116    0.1
  6208.582   784.5137    0.1
  6208.599   783.4727    0.1
  6208.617   784.0316    0.1
  6208.634   782.4853    0.1
  6208.651   779.8346    0.1
  6208.669   778.4418    0.1
  6208.686   777.7808    0.1
  6208.704   779.2386    0.1
  6208.721   780.2426    0.1
  6208.738   780.5803    0.1
  6208.756   780.2130    0.1
  6208.773   780.6805    0.1
  6208.791   781.6086    0.1
  6208.808   784.4884    0.1
  6208.825   785.0590    0.1
  6208.843   783.5500    0.1
  6208.860   784.0474    0.1
  6208.878   784.7176    0.1
  6208.895   784.6097    0.1
  6208.912   784.3106    0.1
  6208.930   783.8358    0.1
  6208.947   781.4980    0.1
  6208.964   781.1246    0.1
  6208.982   780.1187    0.1
  6208.999   779.4710    0.1
  6209.017   778.8437    0.1
  6209.034   775.2548    0.1
  6209.051   773.1666    0.1
  6209.069   773.7920    0.1
  6209.086   770.2488    0.1
  6209.104   768.5739    0.1
  6209.121   768.8517    0.1
  6209.138   768.8837    0.1
  6209.156   769.5324    0.1
  6209.173   771.2755    0.1
  6209.191   771.4516    0.1
  6209.208   771.7038    0.1
  6209.225   769.5097    0.1
  6209.243   770.6307    0.1
  6209.260   772.6704    0.1
  6209.278   772.7783    0.1
  6209.295   771.6091    0.1
  6209.312   769.7414    0.1
  6209.330   767.5015    0.1
  6209.347   765.0422    0.1
  6209.365   763.2979    0.1
  6209.382   762.2216    0.1
  6209.399   761.1045    0.1
  6209.417   758.8894    0.1
  6209.434   757.8599    0.1
  6209.452   757.5565    0.1
  6209.469   757.9244    0.1
  6209.486   759.1883    0.1
  6209.504   761.2212    0.1
  6209.521   764.3715    0.1
  6209.539   767.0157    0.1
  6209.556   769.5745    0.1
  6209.573   771.2474    0.1
  6209.591   772.2914    0.1
  6209.608   776.0163    0.1
  6209.626   779.8502    0.1
  6209.643   781.8211    0.1
  6209.660   782.1662    0.1
  6209.678   781.9061    0.1
  6209.695   781.0376    0.1
  6209.713   781.2550    0.1
  6209.730   782.0248    0.1
  6209.747   785.5934    0.1
  6209.765   785.5267    0.1
  6209.782   783.1113    0.1
  6209.800   783.3069    0.1
  6209.817   784.0868    0.1
  6209.834   784.8100    0.1
  6209.852   783.1744    0.1
  6209.869   781.5215    0.1
  6209.887   781.3449    0.1
  6209.904   783.1936    0.1
  6209.921   785.5010    0.1
  6209.939   783.5532    0.1
  6209.956   783.1483    0.1
  6209.974   785.0280    0.1
  6209.991   785.2789    0.1
  6210.008   784.4991    0.1
  6210.026   782.4926    0.1
  6210.043   781.8416    0.1
  6210.061   781.8610    0.1
  6210.078   781.2426    0.1
  6210.095   778.1977    0.1
  6210.113   773.6184    0.1
  6210.130   769.1504    0.1
  6210.148   764.2652    0.1
  6210.165   755.6295    0.1
  6210.182   747.8245    0.1
  6210.200   741.8275    0.1
  6210.217   729.0142    0.1
  6210.235   719.9375    0.1
  6210.252   713.8719    0.1
  6210.269   698.0699    0.1
  6210.287   688.0485    0.1
  6210.304   680.8474    0.1
  6210.322   672.9847    0.1
  6210.339   668.4446    0.1
  6210.356   665.4123    0.1
  6210.374   664.9340    0.1
  6210.391   665.9467    0.1
  6210.409   672.2496    0.1
  6210.426   678.1442    0.1
  6210.443   683.5072    0.1
  6210.461   697.2270    0.1
  6210.478   707.8846    0.1
  6210.496   718.5630    0.1
  6210.513   728.3069    0.1
  6210.530   735.5226    0.1
  6210.548   747.3932    0.1
  6210.565   758.0564    0.1
  6210.583   765.2297    0.1
  6210.600   772.3261    0.1
  6210.617   776.2091    0.1
  6210.635   779.1043    0.1
  6210.652   783.5409    0.1
  6210.670   786.2139    0.1
  6210.687   788.0548    0.1
  6210.704   786.8490    0.1
  6210.722   785.6230    0.1
  6210.739   786.8381    0.1
  6210.757   786.7033    0.1
  6210.774   785.9403    0.1
  6210.791   786.5076    0.1
  6210.809   786.4909    0.1
  6210.826   786.0026    0.1
  6210.844   786.0748    0.1
  6210.861   785.9022    0.1
  6210.878   785.0046    0.1
  6210.896   782.2276    0.1
  6210.913   780.5634    0.1
  6210.931   783.3762    0.1
  6210.948   783.8392    0.1
  6210.965   782.8377    0.1
  6210.983   781.5668    0.1
  6211.000   782.3068    0.1
  6211.018   784.4744    0.1
  6211.035   781.6776    0.1
  6211.052   780.1671    0.1
  6211.070   782.4220    0.1
  6211.087   779.4528    0.1
  6211.105   775.7162    0.1
  6211.122   775.0280    0.1
  6211.139   775.8431    0.1
  6211.157   776.8191    0.1
  6211.174   775.2970    0.1
  6211.192   775.9619    0.1
  6211.209   779.0380    0.1
  6211.226   778.0076    0.1
  6211.244   777.3864    0.1
  6211.261   780.1519    0.1
  6211.278   782.2931    0.1
  6211.296   783.3743    0.1
  6211.313   784.9311    0.1
  6211.331   786.8946    0.1
  6211.348   788.9802    0.1
  6211.365   790.9650    0.1
  6211.383   790.9539    0.1
  6211.400   789.6484    0.1
  6211.418   792.1251    0.1
  6211.435   793.3666    0.1
  6211.452   790.6947    0.1
  6211.470   788.8495    0.1
  6211.487   787.9246    0.1
  6211.505   785.9534    0.1
  6211.522   785.0266    0.1
  6211.539   784.4403    0.1
  6211.557   777.5401    0.1
  6211.574   772.5680    0.1
  6211.592   768.8742    0.1
  6211.609   762.5931    0.1
  6211.626   756.9214    0.1
  6211.644   748.8267    0.1
  6211.661   742.3575    0.1
  6211.679   738.0997    0.1
  6211.696   730.8173    0.1
  6211.713   727.9384    0.1
  6211.731   727.3666    0.1
  6211.748   722.2064    0.1
  6211.766   719.8940    0.1
  6211.783   720.2807    0.1
  6211.800   718.4166    0.1
  6211.818   717.2085    0.1
  6211.835   718.2580    0.1
  6211.853   721.0327    0.1
  6211.870   723.4895    0.1
  6211.887   726.8484    0.1
  6211.905   729.9451    0.1
  6211.922   732.7552    0.1
  6211.940   737.4186    0.1
  6211.957   741.3740    0.1
  6211.974   745.8379    0.1
  6211.992   748.5744    0.1
  6212.009   750.6162    0.1
  6212.027   755.0272    0.1
  6212.044   757.7981    0.1
  6212.061   759.5948    0.1
  6212.079   766.2218    0.1
  6212.096   769.4581    0.1
  6212.114   770.4764    0.1
  6212.131   773.0499    0.1
  6212.148   774.7872    0.1
  6212.166   776.3657    0.1
  6212.183   781.3816    0.1
  6212.201   784.4672    0.1
  6212.218   785.1795    0.1
  6212.235   784.2008    0.1
  6212.253   783.5654    0.1
  6212.270   785.5939    0.1
  6212.288   787.1871    0.1
  6212.305   788.0104    0.1
  6212.322   786.2605    0.1
  6212.340   784.9436    0.1
  6212.357   784.2283    0.1
  6212.375   783.1304    0.1
  6212.392   783.3770    0.1
  6212.409   785.6959    0.1
  6212.427   784.4505    0.1
  6212.444   782.6548    0.1
  6212.462   782.4129    0.1
  6212.479   783.9683    0.1
  6212.496   785.6946    0.1
  6212.514   784.7809    0.1
  6212.531   785.7759    0.1
  6212.549   788.3925    0.1
  6212.566   787.2650    0.1
  6212.583   786.8130    0.1
  6212.601   788.3453    0.1
  6212.618   787.0440    0.1
  6212.636   785.3234    0.1
  6212.653   783.9940    0.1
  6212.670   785.3503    0.1
  6212.688   786.7656    0.1
  6212.705   782.4939    0.1
  6212.723   780.6807    0.1
  6212.740   780.7811    0.1
  6212.757   776.7421    0.1
  6212.775   772.2026    0.1
  6212.792   766.5997    0.1
  6212.810   760.9981    0.1
  6212.827   756.0620    0.1
  6212.844   747.0261    0.1
  6212.862   736.7054    0.1
  6212.879   728.2050    0.1
  6212.897   711.6718    0.1
  6212.914   691.2164    0.1
  6212.931   671.8776    0.1
  6212.949   645.1389    0.1
  6212.966   620.8228    0.1
  6212.984   592.1565    0.1
  6213.001   553.7721    0.1
  6213.018   525.5233    0.1
  6213.036   492.4166    0.1
  6213.053   459.2701    0.1
  6213.071   436.0700    0.1
  6213.088   404.7874    0.1
  6213.105   384.7502    0.1
  6213.123   374.4026    0.1
  6213.140   366.8490    0.1
  6213.158   367.9118    0.1
  6213.175   373.4648    0.1
  6213.192   395.6021    0.1
  6213.210   415.4979    0.1
  6213.227   438.1725    0.1
  6213.245   472.6719    0.1
  6213.262   500.5528    0.1
  6213.279   537.2184    0.1
  6213.297   570.4657    0.1
  6213.314   592.7875    0.1
  6213.332   621.4460    0.1
  6213.349   641.7317    0.1
  6213.366   656.2630    0.1
  6213.384   672.0780    0.1
  6213.401   679.2352    0.1
  6213.419   682.7352    0.1
  6213.436   681.8973    0.1
  6213.453   678.2726    0.1
  6213.471   671.2128    0.1
  6213.488   662.9492    0.1
  6213.505   656.8182    0.1
  6213.523   648.2613    0.1
  6213.540   640.1435    0.1
  6213.558   634.2991    0.1
  6213.575   629.8568    0.1
  6213.592   629.7724    0.1
  6213.610   631.5806    0.1
  6213.627   633.9929    0.1
  6213.645   639.5593    0.1
  6213.662   649.8978    0.1
  6213.679   663.6956    0.1
  6213.697   673.5601    0.1
  6213.714   685.0791    0.1
  6213.732   697.2777    0.1
  6213.749   706.0484    0.1
  6213.766   716.7918    0.1
  6213.784   724.2728    0.1
  6213.801   729.0989    0.1
  6213.819   735.7422    0.1
  6213.836   741.9421    0.1
  6213.853   748.4045    0.1
  6213.871   750.6170    0.1
  6213.888   753.5981    0.1
  6213.906   760.6327    0.1
  6213.923   762.8513    0.1
  6213.940   763.3154    0.1
  6213.958   765.7176    0.1
  6213.975   767.8189    0.1
  6213.993   769.0340    0.1
  6214.010   769.9702    0.1
  6214.027   769.5043    0.1
  6214.045   768.5501    0.1
  6214.062   766.1882    0.1
  6214.080   762.9540    0.1
  6214.097   758.8261    0.1
  6214.114   755.0343    0.1
  6214.132   753.0416    0.1
  6214.149   751.5136    0.1
  6214.167   748.0447    0.1
  6214.184   744.0801    0.1
  6214.201   736.8125    0.1
  6214.219   731.9082    0.1
  6214.236   729.1554    0.1
  6214.254   725.1022    0.1
  6214.271   722.8005    0.1
  6214.288   721.6310    0.1
  6214.306   720.7970    0.1
  6214.323   720.6905    0.1
  6214.341   721.1783    0.1
  6214.358   725.5145    0.1
  6214.375   728.8075    0.1
  6214.393   731.5453    0.1
  6214.410   737.1327    0.1
  6214.428   741.4236    0.1
  6214.445   745.0130    0.1
  6214.462   747.5026    0.1
  6214.480   749.5879    0.1
  6214.497   755.5660    0.1
  6214.515   755.8400    0.1
  6214.532   752.9583    0.1
  6214.549   746.7632    0.1
  6214.567   741.5042    0.1
  6214.584   736.0262    0.1
  6214.602   722.4723    0.1
  6214.619   709.6584    0.1
  6214.636   694.1448    0.1
  6214.654   674.0331    0.1
  6214.671   657.7912    0.1
  6214.689   636.5638    0.1
  6214.706   610.7011    0.1
  6214.723   589.1679    0.1
  6214.741   560.4418    0.1
  6214.758   537.9061    0.1
  6214.776   521.0015    0.1
  6214.793   493.3290    0.1
  6214.810   477.7855    0.1
  6214.828   468.6871    0.1
  6214.845   458.1745    0.1
  6214.863   454.0482    0.1
  6214.880   454.5580    0.1
  6214.897   461.8322    0.1
  6214.915   470.6581    0.1
  6214.932   484.9914    0.1
  6214.950   503.1173    0.1
  6214.967   518.9017    0.1
  6214.984   544.4601    0.1
  6215.002   566.5927    0.1
  6215.019   582.5125    0.1
  6215.037   607.5690    0.1
  6215.054   624.3462    0.1
  6215.071   636.5436    0.1
  6215.089   657.0922    0.1
  6215.106   670.6851    0.1
  6215.124   681.1488    0.1
  6215.141   694.7641    0.1
  6215.158   703.5495    0.1
  6215.176   710.4375    0.1
  6215.193   721.9138    0.1
  6215.211   730.8021    0.1
  6215.228   738.8320    0.1
  6215.245   744.4898    0.1
  6215.263   747.8684    0.1
  6215.280   751.2090    0.1
  6215.298   753.5941    0.1
  6215.315   755.3129    0.1
  6215.332   754.1135    0.1
  6215.350   753.2530    0.1
  6215.367   752.9795    0.1
  6215.385   747.0202    0.1
  6215.402   743.6351    0.1
  6215.419   743.4944    0.1
  6215.437   741.1553    0.1
  6215.454   739.1731    0.1
  6215.472   738.2396    0.1
  6215.489   734.3566    0.1
  6215.506   731.4885    0.1
  6215.524   734.2828    0.1
  6215.541   734.0307    0.1
  6215.559   732.1027    0.1
  6215.576   732.4854    0.1
  6215.593   735.0181    0.1
  6215.611   738.3343    0.1
  6215.628   740.5839    0.1
  6215.646   743.3314    0.1
  6215.663   747.8098    0.1
  6215.680   752.9886    0.1
  6215.698   756.9654    0.1
  6215.715   761.8644    0.1
  6215.733   762.1798    0.1
  6215.750   760.9223    0.1
  6215.767   759.8105    0.1
  6215.785   756.7987    0.1
  6215.802   753.0663    0.1
  6215.819   743.4508    0.1
  6215.837   732.6566    0.1
  6215.854   723.0176    0.1
  6215.872   701.8525    0.1
  6215.889   682.1253    0.1
  6215.906   661.8321    0.1
  6215.924   634.6469    0.1
  6215.941   613.9690    0.1
  6215.959   591.1407    0.1
  6215.976   564.4890    0.1
  6215.993   545.4232    0.1
  6216.011   523.5111    0.1
  6216.028   506.8412    0.1
  6216.046   497.5827    0.1
  6216.063   489.2044    0.1
  6216.080   489.3860    0.1
  6216.098   493.5283    0.1
  6216.115   505.6664    0.1
  6216.133   522.5622    0.1
  6216.150   539.3837    0.1
  6216.167   567.5601    0.1
  6216.185   589.7075    0.1
  6216.202   610.7162    0.1
  6216.220   637.0419    0.1
  6216.237   654.6667    0.1
  6216.254   671.7341    0.1
  6216.272   690.9464    0.1
  6216.289   703.0965    0.1
  6216.307   714.0100    0.1
  6216.324   727.4817    0.1
  6216.341   735.8626    0.1
  6216.359   739.2866    0.1
  6216.376   743.2700    0.1
  6216.394   747.0606    0.1
  6216.411   752.0453    0.1
  6216.428   754.2905    0.1
  6216.446   755.1205    0.1
  6216.463   757.5258    0.1
  6216.481   758.4920    0.1
  6216.498   758.6585    0.1
  6216.515   758.7831    0.1
  6216.533   758.4916    0.1
  6216.550   758.0793    0.1
  6216.568   760.9263    0.1
  6216.585   762.1537    0.1
  6216.602   761.0430    0.1
  6216.620   761.7216    0.1
  6216.637   763.1122    0.1
  6216.655   765.4784    0.1
  6216.672   769.4528    0.1
  6216.689   772.4383    0.1
  6216.707   774.5150    0.1
  6216.724   776.4635    0.1
  6216.742   778.4043    0.1
  6216.759   784.0329    0.1
  6216.776   785.6419    0.1
  6216.794   785.2975    0.1
  6216.811   791.0793    0.1
  6216.829   792.4579    0.1
  6216.846   790.7650    0.1
  6216.863   794.0334    0.1
  6216.881   796.0494    0.1
  6216.898   796.2132    0.1
  6216.916   795.1736    0.1
  6216.933   793.8872    0.1
  6216.950   792.2019    0.1
  6216.968   794.3658    0.1
  6216.985   795.8759    0.1
  6217.003   793.5068    0.1
  6217.020   793.0695    0.1
  6217.037   793.6193    0.1
  6217.055   793.8249    0.1
  6217.072   792.4559    0.1
  6217.090   790.7199    0.1
  6217.107   788.8564    0.1
  6217.124   785.6578    0.1
  6217.142   781.9843    0.1
  6217.159   782.7135    0.1
  6217.177   781.7248    0.1
  6217.194   778.3455    0.1
  6217.211   776.4423    0.1
  6217.229   775.1488    0.1
  6217.246   773.2075    0.1
  6217.264   771.7325    0.1
  6217.281   768.9612    0.1
  6217.298   761.9467    0.1
  6217.316   757.7954    0.1
  6217.333   755.6007    0.1
  6217.351   751.5888    0.1
  6217.368   747.1136    0.1
  6217.385   744.0748    0.1
  6217.403   743.3903    0.1
  6217.420   740.4075    0.1
  6217.438   736.9658    0.1
  6217.455   738.6077    0.1
  6217.472   738.5371    0.1
  6217.490   736.9580    0.1
  6217.507   736.9343    0.1
  6217.525   737.7021    0.1
  6217.542   738.7319    0.1
  6217.559   737.1356    0.1
  6217.577   736.3701    0.1
  6217.594   737.1862    0.1
  6217.612   739.7720    0.1
  6217.629   741.7130    0.1
  6217.646   743.2635    0.1
  6217.664   742.8626    0.1
  6217.681   743.3622    0.1
  6217.699   748.0107    0.1
  6217.716   749.5004    0.1
  6217.733   749.4779    0.1
  6217.751   750.9889    0.1
  6217.768   750.4147    0.1
  6217.786   749.4174    0.1
  6217.803   752.4977    0.1
  6217.820   752.3682    0.1
  6217.838   750.4624    0.1
  6217.855   752.1535    0.1
  6217.873   752.1683    0.1
  6217.890   750.7859    0.1
  6217.907   753.4044    0.1
  6217.925   755.7668    0.1
  6217.942   757.4804    0.1
  6217.960   758.8602    0.1
  6217.977   760.1389    0.1
  6217.994   762.3815    0.1
  6218.012   766.2889    0.1
  6218.029   768.5115    0.1
  6218.046   769.2670    0.1
  6218.064   772.2370    0.1
  6218.081   774.4505    0.1
  6218.099   774.6446    0.1
  6218.116   778.5590    0.1
  6218.133   782.3180    0.1
  6218.151   782.7200    0.1
  6218.168   783.7527    0.1
  6218.186   785.0692    0.1
  6218.203   784.4160    0.1
  6218.220   784.9527    0.1
  6218.238   786.1904    0.1
  6218.255   784.4736    0.1
  6218.273   784.1358    0.1
  6218.290   785.0841    0.1
  6218.307   784.3243    0.1
  6218.325   784.5196    0.1
  6218.342   786.1134    0.1
  6218.360   787.5963    0.1
  6218.377   787.3626    0.1
  6218.394   785.4604    0.1
  6218.412   783.6597    0.1
  6218.429   783.8732    0.1
  6218.447   786.9709    0.1
  6218.464   786.8886    0.1
  6218.481   786.5136    0.1
  6218.499   789.1553    0.1
  6218.516   789.6413    0.1
  6218.534   788.7322    0.1
  6218.551   786.8715    0.1
  6218.568   785.8675    0.1
  6218.586   785.1941    0.1
  6218.603   782.4170    0.1
  6218.621   778.7808    0.1
  6218.638   775.2467    0.1
  6218.655   768.9637    0.1
  6218.673   761.8992    0.1
  6218.690   754.3027    0.1
  6218.708   740.3956    0.1
  6218.725   726.6061    0.1
  6218.742   711.5210    0.1
  6218.760   690.6053    0.1
  6218.777   670.2893    0.1
  6218.795   644.8203    0.1
  6218.812   611.0733    0.1
  6218.829   582.7389    0.1
  6218.847   548.7859    0.1
  6218.864   509.5914    0.1
  6218.882   480.2386    0.1
  6218.899   445.3822    0.1
  6218.916   413.0498    0.1
  6218.934   391.4492    0.1
  6218.951   367.5136    0.1
  6218.969   351.7741    0.1
  6218.986   344.7651    0.1
  6219.003   345.4288    0.1
  6219.021   354.0979    0.1
  6219.038   364.8391    0.1
  6219.056   390.3233    0.1
  6219.073   414.8121    0.1
  6219.090   435.4442    0.1
  6219.108   477.2844    0.1
  6219.125   509.2327    0.1
  6219.143   534.8552    0.1
  6219.160   574.0335    0.1
  6219.177   601.3313    0.1
  6219.195   624.2348    0.1
  6219.212   656.6091    0.1
  6219.230   676.9710    0.1
  6219.247   692.8999    0.1
  6219.264   711.5413    0.1
  6219.282   723.3477    0.1
  6219.299   733.5088    0.1
  6219.317   742.1179    0.1
  6219.334   747.8504    0.1
  6219.351   754.7097    0.1
  6219.369   758.2934    0.1
  6219.386   759.4006    0.1
  6219.404   760.0599    0.1
  6219.421   759.5045    0.1
  6219.438   757.7813    0.1
  6219.456   752.7009    0.1
  6219.473   746.7395    0.1
  6219.491   742.2814    0.1
  6219.508   738.5968    0.1
  6219.525   729.2896    0.1
  6219.543   719.3979    0.1
  6219.560   711.1054    0.1
  6219.578   704.8731    0.1
  6219.595   699.9005    0.1
  6219.612   693.5472    0.1
  6219.630   689.2626    0.1
  6219.647   686.2921    0.1
  6219.665   685.5284    0.1
  6219.682   685.7551    0.1
  6219.699   686.2682    0.1
  6219.717   688.8254    0.1
  6219.734   691.9831    0.1
  6219.752   695.6980    0.1
  6219.769   697.9937    0.1
  6219.786   698.8878    0.1
  6219.804   699.7220    0.1
  6219.821   701.7684    0.1
  6219.839   702.0811    0.1
  6219.856   700.2043    0.1
  6219.873   697.1981    0.1
  6219.891   696.0568    0.1
  6219.908   697.2802    0.1
  6219.926   697.0641    0.1
  6219.943   695.9927    0.1
  6219.960   694.3770    0.1
  6219.978   695.5940    0.1
  6219.995   696.7593    0.1
  6220.013   695.5365    0.1
  6220.030   695.6868    0.1
  6220.047   695.7190    0.1
  6220.065   691.8312    0.1
  6220.082   689.4142    0.1
  6220.100   688.1416    0.1
  6220.117   684.3827    0.1
  6220.134   681.1104    0.1
  6220.152   678.6024    0.1
  6220.169   673.9866    0.1
  6220.187   672.2125    0.1
  6220.204   672.2556    0.1
  6220.221   675.6934    0.1
  6220.239   677.3615    0.1
  6220.256   677.7308    0.1
  6220.273   678.8821    0.1
  6220.291   680.3554    0.1
  6220.308   682.0434    0.1
  6220.326   681.0186    0.1
  6220.343   677.4286    0.1
  6220.360   672.0273    0.1
  6220.378   663.3203    0.1
  6220.395   655.8824    0.1
  6220.413   648.0394    0.1
  6220.430   636.7247    0.1
  6220.447   630.0734    0.1
  6220.465   626.7362    0.1
  6220.482   620.0712    0.1
  6220.500   616.9694    0.1
  6220.517   619.5552    0.1
  6220.534   628.6431    0.1
  6220.552   636.6766    0.1
  6220.569   645.4892    0.1
  6220.587   657.5807    0.1
  6220.604   667.9636    0.1
  6220.621   681.5510    0.1
  6220.639   694.5577    0.1
  6220.656   704.1930    0.1
  6220.674   717.4263    0.1
  6220.691   727.6928    0.1
  6220.708   733.6195    0.1
  6220.726   738.6466    0.1
  6220.743   741.4697    0.1
  6220.761   742.7864    0.1
  6220.778   742.6544    0.1
  6220.795   742.0434    0.1
  6220.813   741.0550    0.1
  6220.830   734.9593    0.1
  6220.848   727.8960    0.1
  6220.865   721.3247    0.1
  6220.882   707.6926    0.1
  6220.900   696.9440    0.1
  6220.917   688.4849    0.1
  6220.935   674.0311    0.1
  6220.952   662.3564    0.1
  6220.969   652.1444    0.1
  6220.987   638.5417    0.1
  6221.004   631.8431    0.1
  6221.022   628.8766    0.1
  6221.039   626.8641    0.1
  6221.056   627.0832    0.1
  6221.074   628.8911    0.1
  6221.091   638.8097    0.1
  6221.109   647.8221    0.1
  6221.126   656.1531    0.1
  6221.143   669.2251    0.1
  6221.161   679.0529    0.1
  6221.178   687.9011    0.1
  6221.196   700.1588    0.1
  6221.213   707.6029    0.1
  6221.230   711.7722    0.1
  6221.248   716.7847    0.1
  6221.265   719.2634    0.1
  6221.283   719.4962    0.1
  6221.300   715.5403    0.1
  6221.317   712.0681    0.1
  6221.335   709.5346    0.1
  6221.352   705.2298    0.1
  6221.370   702.1738    0.1
  6221.387   700.5173    0.1
  6221.404   699.4968    0.1
  6221.422   699.5703    0.1
  6221.439   701.9127    0.1
  6221.457   704.6178    0.1
  6221.474   707.4478    0.1
  6221.491   713.7436    0.1
  6221.509   718.4123    0.1
  6221.526   721.5729    0.1
  6221.544   727.6122    0.1
  6221.561   734.1689    0.1
  6221.578   739.0243    0.1
  6221.596   743.8598    0.1
  6221.613   745.7421    0.1
  6221.631   746.8649    0.1
  6221.648   752.5642    0.1
  6221.665   757.2921    0.1
  6221.683   760.3199    0.1
  6221.700   763.4583    0.1
  6221.718   765.5297    0.1
  6221.735   767.1766    0.1
  6221.752   771.6986    0.1
  6221.770   774.4244    0.1
  6221.787   775.7436    0.1
  6221.805   777.5384    0.1
  6221.822   778.9211    0.1
  6221.839   779.9490    0.1
  6221.857   780.9651    0.1
  6221.874   783.3847    0.1
  6221.892   786.4486    0.1
  6221.909   787.2518    0.1
  6221.926   787.3255    0.1
  6221.944   787.6369    0.1
  6221.961   788.5484    0.1
  6221.979   788.9412    0.1
  6221.996   788.9510    0.1
  6222.013   787.5908    0.1
  6222.031   787.0039    0.1
  6222.048   787.2516    0.1
  6222.066   788.9518    0.1
  6222.083   787.5849    0.1
  6222.100   784.0614    0.1
  6222.118   786.0447    0.1
  6222.135   787.4747    0.1
  6222.153   787.1566    0.1
  6222.170   783.3066    0.1
  6222.187   781.6254    0.1
  6222.205   782.0586    0.1
  6222.222   781.8376    0.1
  6222.240   780.4530    0.1
  6222.257   777.9890    0.1
  6222.274   774.3018    0.1
  6222.292   772.9694    0.1
  6222.309   773.6208    0.1
  6222.327   773.6065    0.1
  6222.344   773.2423    0.1
  6222.361   772.9021    0.1
  6222.379   772.8553    0.1
  6222.396   770.8225    0.1
  6222.414   765.9138    0.1
  6222.431   764.3031    0.1
  6222.448   764.1506    0.1
  6222.466   763.6259    0.1
  6222.483   759.8535    0.1
  6222.501   757.4149    0.1
  6222.518   757.1660    0.1
  6222.535   756.1535    0.1
  6222.553   754.9184    0.1
  6222.570   753.5107    0.1
  6222.587   752.6966    0.1
  6222.605   751.5345    0.1
  6222.622   748.9287    0.1
  6222.640   749.3271    0.1
  6222.657   749.6454    0.1
  6222.674   747.8292    0.1
  6222.692   748.0973    0.1
  6222.709   748.1547    0.1
  6222.727   746.1913    0.1
  6222.744   749.4846    0.1
  6222.761   751.9985    0.1
  6222.779   750.4572    0.1
  6222.796   751.3185    0.1
  6222.814   753.6318    0.1
  6222.831   757.7343    0.1
  6222.848   760.9741    0.1
  6222.866   763.0753    0.1
  6222.883   765.7719    0.1
  6222.901   766.9544    0.1
  6222.918   768.3758    0.1
  6222.935   773.0610    0.1
  6222.953   773.5554    0.1
  6222.970   773.3863    0.1
  6222.988   777.1094    0.1
  6223.005   780.3941    0.1
  6223.022   781.2712    0.1
  6223.040   778.6561    0.1
  6223.057   780.4868    0.1
  6223.075   783.4726    0.1
  6223.092   785.3509    0.1
  6223.109   784.3031    0.1
  6223.127   783.3837    0.1
  6223.144   785.4184    0.1
  6223.162   784.3911    0.1
  6223.179   783.3495    0.1
  6223.196   786.6602    0.1
  6223.214   785.7417    0.1
  6223.231   783.6789    0.1
  6223.249   784.0238    0.1
  6223.266   784.4595    0.1
  6223.283   784.4502    0.1
  6223.301   783.8008    0.1
  6223.318   780.9241    0.1
  6223.336   778.4117    0.1
  6223.353   777.7655    0.1
  6223.370   775.8119    0.1
  6223.388   773.2326    0.1
  6223.405   768.7492    0.1
  6223.423   764.5262    0.1
  6223.440   760.7810    0.1
  6223.457   754.0426    0.1
  6223.475   747.8484    0.1
  6223.492   741.5972    0.1
  6223.510   727.3164    0.1
  6223.527   716.2023    0.1
  6223.544   707.6884    0.1
  6223.562   692.0332    0.1
  6223.579   679.6633    0.1
  6223.597   670.3900    0.1
  6223.614   655.3939    0.1
  6223.631   643.0033    0.1
  6223.649   634.5708    0.1
  6223.666   624.8445    0.1
  6223.684   619.2245    0.1
  6223.701   617.0803    0.1
  6223.718   618.4698    0.1
  6223.736   624.6249    0.1
  6223.753   631.6533    0.1
  6223.771   643.3416    0.1
  6223.788   658.1879    0.1
  6223.805   670.4568    0.1
  6223.823   683.3712    0.1
  6223.840   696.2642    0.1
  6223.858   706.8738    0.1
  6223.875   719.7254    0.1
  6223.892   729.8777    0.1
  6223.910   736.5432    0.1
  6223.927   742.4909    0.1
  6223.945   745.5501    0.1
  6223.962   746.6762    0.1
  6223.979   746.1118    0.1
  6223.997   744.1046    0.1
  6224.014   741.3464    0.1
  6224.032   735.0578    0.1
  6224.049   724.9659    0.1
  6224.066   715.2463    0.1
  6224.084   702.9527    0.1
  6224.101   691.1384    0.1
  6224.119   680.7558    0.1
  6224.136   664.8025    0.1
  6224.153   653.7563    0.1
  6224.171   646.6665    0.1
  6224.188   637.0110    0.1
  6224.206   631.7310    0.1
  6224.223   630.3628    0.1
  6224.240   632.2690    0.1
  6224.258   637.1903    0.1
  6224.275   643.6305    0.1
  6224.293   657.4359    0.1
  6224.310   668.0024    0.1
  6224.327   676.0461    0.1
  6224.345   691.4761    0.1
  6224.362   706.2200    0.1
  6224.380   715.9545    0.1
  6224.397   725.5943    0.1
  6224.414   733.2498    0.1
  6224.432   739.0143    0.1
  6224.449   747.1913    0.1
  6224.467   753.6244    0.1
  6224.484   756.4815    0.1
  6224.501   756.3162    0.1
  6224.519   757.8736    0.1
  6224.536   759.2222    0.1
  6224.554   758.9669    0.1
  6224.571   760.6531    0.1
  6224.588   762.0404    0.1
  6224.606   761.7037    0.1
  6224.623   758.7667    0.1
  6224.641   756.3881    0.1
  6224.658   755.3451    0.1
  6224.675   752.4609    0.1
  6224.693   749.9371    0.1
  6224.710   748.3695    0.1
  6224.728   748.4691    0.1
  6224.745   748.5604    0.1
  6224.762   747.7364    0.1
  6224.780   746.5755    0.1
  6224.797   745.6876    0.1
  6224.814   744.9315    0.1
  6224.832   744.4532    0.1
  6224.849   745.9379    0.1
  6224.867   750.2572    0.1
  6224.884   749.8351    0.1
  6224.901   750.3909    0.1
  6224.919   755.1712    0.1
  6224.936   757.0524    0.1
  6224.954   758.8145    0.1
  6224.971   762.8779    0.1
  6224.988   762.5687    0.1
  6225.006   762.5864    0.1
  6225.023   764.9500    0.1
  6225.041   764.0320    0.1
  6225.058   763.5181    0.1
  6225.075   764.6185    0.1
  6225.093   763.0153    0.1
  6225.110   759.6393    0.1
  6225.128   755.3144    0.1
  6225.145   754.6146    0.1
  6225.162   756.0068    0.1
  6225.180   757.9058    0.1
  6225.197   756.9477    0.1
  6225.215   756.9330    0.1
  6225.232   758.5438    0.1
  6225.249   760.9663    0.1
  6225.267   763.9892    0.1
  6225.284   767.6962    0.1
  6225.302   771.4707    0.1
  6225.319   775.5447    0.1
  6225.336   780.1669    0.1
  6225.354   783.1778    0.1
  6225.371   784.0701    0.1
  6225.389   784.6102    0.1
  6225.406   789.3552    0.1
  6225.423   791.5604    0.1
  6225.441   791.8039    0.1
  6225.458   792.3228    0.1
  6225.476   792.2846    0.1
  6225.493   791.7447    0.1
  6225.510   788.5693    0.1
  6225.528   787.7150    0.1
  6225.545   787.8106    0.1
  6225.563   782.7313    0.1
  6225.580   781.5316    0.1
  6225.597   782.5462    0.1
  6225.615   781.1034    0.1
  6225.632   781.4490    0.1
  6225.650   782.3688    0.1
  6225.667   780.2946    0.1
  6225.684   777.6166    0.1
  6225.702   776.2675    0.1
  6225.719   778.3944    0.1
  6225.737   779.1974    0.1
  6225.754   778.5716    0.1
  6225.771   776.5991    0.1
  6225.789   774.3590    0.1
  6225.806   772.6661    0.1
  6225.824   771.0239    0.1
  6225.841   769.0953    0.1
  6225.858   767.3708    0.1
  6225.876   764.9679    0.1
  6225.893   758.7801    0.1
  6225.911   753.9477    0.1
  6225.928   751.5161    0.1
  6225.945   745.7703    0.1
  6225.963   741.1381    0.1
  6225.980   738.6323    0.1
  6225.998   738.9406    0.1
  6226.015   738.6893    0.1
  6226.032   736.2681    0.1
  6226.050   736.9299    0.1
  6226.067   738.4182    0.1
  6226.085   739.6246    0.1
  6226.102   741.1197    0.1
  6226.119   741.9334    0.1
  6226.137   742.4407    0.1
  6226.154   745.2601    0.1
  6226.172   746.6947    0.1
  6226.189   746.3581    0.1
  6226.206   740.1870    0.1
  6226.224   735.8688    0.1
  6226.241   733.2923    0.1
  6226.259   719.6480    0.1
  6226.276   708.1238    0.1
  6226.293   698.9737    0.1
  6226.311   679.4643    0.1
  6226.328   664.3131    0.1
  6226.346   652.6552    0.1
  6226.363   634.6055    0.1
  6226.380   621.2120    0.1
  6226.398   610.8608    0.1
  6226.415   598.2007    0.1
  6226.433   592.6303    0.1
  6226.450   591.2142    0.1
  6226.467   596.0855    0.1
  6226.485   602.1998    0.1
  6226.502   609.0605    0.1
  6226.520   628.6902    0.1
  6226.537   646.0535    0.1
  6226.554   659.6399    0.1
  6226.572   680.4197    0.1
  6226.589   700.0512    0.1
  6226.607   714.9320    0.1
  6226.624   732.4877    0.1
  6226.641   745.1903    0.1
  6226.659   753.2599    0.1
  6226.676   763.1153    0.1
  6226.694   773.3558    0.1
  6226.711   779.3158    0.1
  6226.728   781.7339    0.1
  6226.746   784.4259    0.1
  6226.763   786.4541    0.1
  6226.781   787.8965    0.1
  6226.798   787.5773    0.1
  6226.815   785.8858    0.1
  6226.833   782.9267    0.1
  6226.850   782.8374    0.1
  6226.868   782.2711    0.1
  6226.885   779.6604    0.1
  6226.902   776.0601    0.1
  6226.920   774.0909    0.1
  6226.937   773.0958    0.1
  6226.955   769.9214    0.1
  6226.972   766.9429    0.1
  6226.989   764.5149    0.1
  6227.007   762.8358    0.1
  6227.024   759.2850    0.1
  6227.041   754.4404    0.1
  6227.059   748.3917    0.1
  6227.076   745.0062    0.1
  6227.094   742.9243    0.1
  6227.111   737.1050    0.1
  6227.128   732.0615    0.1
  6227.146   727.8614    0.1
  6227.163   718.2176    0.1
  6227.181   714.2169    0.1
  6227.198   712.7155    0.1
  6227.215   705.3045    0.1
  6227.233   701.2266    0.1
  6227.250   700.2519    0.1
  6227.268   700.6419    0.1
  6227.285   702.5558    0.1
  6227.302   705.2419    0.1
  6227.320   710.6257    0.1
  6227.337   718.2425    0.1
  6227.355   725.3185    0.1
  6227.372   734.0984    0.1
  6227.389   739.7259    0.1
  6227.407   744.7773    0.1
  6227.424   753.3558    0.1
  6227.442   758.6483    0.1
  6227.459   761.0343    0.1
  6227.476   763.3836    0.1
  6227.494   766.7305    0.1
  6227.511   768.1808    0.1
  6227.529   768.1845    0.1
  6227.546   768.4859    0.1
  6227.563   767.5169    0.1
  6227.581   765.7631    0.1
  6227.598   767.9447    0.1
  6227.616   769.8309    0.1
  6227.633   770.6799    0.1
  6227.650   770.6794    0.1
  6227.668   770.5347    0.1
  6227.685   770.6384    0.1
  6227.703   771.8970    0.1
  6227.720   773.7504    0.1
  6227.737   775.6087    0.1
  6227.755   778.2637    0.1
  6227.772   779.4543    0.1
  6227.790   779.2775    0.1
  6227.807   777.4275    0.1
  6227.824   779.9290    0.1
  6227.842   781.8722    0.1
  6227.859   778.3785    0.1
  6227.877   775.8155    0.1
  6227.894   774.1708    0.1
  6227.911   771.3289    0.1
  6227.929   769.1349    0.1
  6227.946   766.4236    0.1
  6227.964   761.6164    0.1
  6227.981   758.7104    0.1
  6227.998   757.8290    0.1
  6228.016   757.3475    0.1
  6228.033   753.0519    0.1
  6228.051   750.5794    0.1
  6228.068   750.3018    0.1
  6228.085   751.0288    0.1
  6228.103   751.3844    0.1
  6228.120   751.5908    0.1
  6228.138   754.9754    0.1
  6228.155   756.9489    0.1
  6228.172   757.9530    0.1
  6228.190   761.8733    0.1
  6228.207   764.9872    0.1
  6228.225   767.0657    0.1
  6228.242   769.8230    0.1
  6228.259   773.7514    0.1
  6228.277   776.8415    0.1
  6228.294   778.5161    0.1
  6228.312   782.6518    0.1
  6228.329   786.3734    0.1
  6228.346   788.7141    0.1
  6228.364   788.3682    0.1
  6228.381   788.3205    0.1
  6228.399   790.1368    0.1
  6228.416   791.5895    0.1
  6228.433   792.5334    0.1
  6228.451   793.6850    0.1
  6228.468   792.7551    0.1
  6228.486   792.2381    0.1
  6228.503   792.5121    0.1
  6228.520   790.4334    0.1
  6228.538   788.7344    0.1
  6228.555   787.6125    0.1
  6228.573   784.9603    0.1
  6228.590   782.8187    0.1
  6228.607   780.8219    0.1
  6228.625   775.3211    0.1
  6228.642   771.1267    0.1
  6228.660   767.6816    0.1
  6228.677   760.0491    0.1
  6228.694   750.3625    0.1
  6228.712   740.6464    0.1
  6228.729   724.8108    0.1
  6228.747   708.7634    0.1
  6228.764   694.4167    0.1
  6228.781   673.3112    0.1
  6228.799   649.1132    0.1
  6228.816   629.6762    0.1
  6228.834   607.5998    0.1
  6228.851   580.3851    0.1
  6228.868   561.1091    0.1
  6228.886   544.4626    0.1
  6228.903   524.8841    0.1
  6228.921   513.7392    0.1
  6228.938   507.2850    0.1
  6228.955   505.5894    0.1
  6228.973   508.5518    0.1
  6228.990   513.6260    0.1
  6229.008   529.5924    0.1
  6229.025   547.5045    0.1
  6229.042   564.2429    0.1
  6229.060   590.6246    0.1
  6229.077   615.0974    0.1
  6229.095   634.8259    0.1
  6229.112   660.9990    0.1
  6229.129   682.9155    0.1
  6229.147   697.8479    0.1
  6229.164   714.3834    0.1
  6229.182   733.6175    0.1
  6229.199   745.8060    0.1
  6229.216   753.5015    0.1
  6229.234   762.4108    0.1
  6229.251   768.2781    0.1
  6229.269   772.5583    0.1
  6229.286   778.2749    0.1
  6229.303   779.9822    0.1
  6229.321   779.0309    0.1
  6229.338   777.5135    0.1
  6229.355   775.8667    0.1
  6229.373   774.3456    0.1
  6229.390   773.4738    0.1
  6229.408   769.6815    0.1
  6229.425   765.0657    0.1
  6229.442   760.3020    0.1
  6229.460   755.6253    0.1
  6229.477   751.3947    0.1
  6229.495   745.5301    0.1
  6229.512   737.3240    0.1
  6229.529   731.6211    0.1
  6229.547   728.1117    0.1
  6229.564   719.4707    0.1
  6229.582   712.0099    0.1
  6229.599   705.7112    0.1
  6229.616   697.8060    0.1
  6229.634   690.6516    0.1
  6229.651   683.0760    0.1
  6229.669   672.2207    0.1
  6229.686   663.8945    0.1
  6229.703   656.9779    0.1
  6229.721   647.9317    0.1
  6229.738   641.8793    0.1
  6229.756   637.6094    0.1
  6229.773   631.7049    0.1
  6229.790   629.0315    0.1
  6229.808   629.6872    0.1
  6229.825   636.0535    0.1
  6229.843   645.0055    0.1
  6229.860   653.1859    0.1
  6229.877   664.0714    0.1
  6229.895   675.5261    0.1
  6229.912   685.0909    0.1
  6229.930   696.8150    0.1
  6229.947   714.0362    0.1
  6229.964   723.4115    0.1
  6229.982   727.5166    0.1
  6229.999   735.0013    0.1
  6230.017   738.6482    0.1
  6230.034   739.5491    0.1
  6230.051   739.4203    0.1
  6230.069   736.5463    0.1
  6230.086   732.1037    0.1
  6230.104   723.1459    0.1
  6230.121   713.2518    0.1
  6230.138   703.5751    0.1
  6230.156   687.1136    0.1
  6230.173   662.8587    0.1
  6230.191   641.8317    0.1
  6230.208   619.2674    0.1
  6230.225   587.8066    0.1
  6230.243   559.8332    0.1
  6230.260   529.1432    0.1
  6230.278   489.6563    0.1
  6230.295   456.9850    0.1
  6230.312   425.3490    0.1
  6230.330   383.5215    0.1
  6230.347   352.0547    0.1
  6230.365   326.0814    0.1
  6230.382   293.8490    0.1
  6230.399   271.0728    0.1
  6230.417   255.3898    0.1
  6230.434   242.2882    0.1
  6230.452   237.5372    0.1
  6230.469   238.3676    0.1
  6230.486   245.2254    0.1
  6230.504   260.0597    0.1
  6230.521   275.5828    0.1
  6230.539   295.1077    0.1
  6230.556   321.6058    0.1
  6230.573   345.1661    0.1
  6230.591   370.0708    0.1
  6230.608   403.9952    0.1
  6230.626   430.1256    0.1
  6230.643   452.4466    0.1
  6230.660   486.0553    0.1
  6230.678   508.9060    0.1
  6230.695   526.0662    0.1
  6230.713   552.6023    0.1
  6230.730   573.3740    0.1
  6230.747   588.9664    0.1
  6230.765   609.0229    0.1
  6230.782   628.7856    0.1
  6230.800   643.0004    0.1
  6230.817   655.6605    0.1
  6230.834   671.8035    0.1
  6230.852   684.0821    0.1
  6230.869   694.6913    0.1
  6230.887   704.0712    0.1
  6230.904   710.6972    0.1
  6230.921   716.6049    0.1
  6230.939   722.5447    0.1
  6230.956   726.9439    0.1
  6230.974   730.4810    0.1
  6230.991   734.2363    0.1
  6231.008   735.6878    0.1
  6231.026   736.1255    0.1
  6231.043   737.0593    0.1
  6231.061   738.9263    0.1
  6231.078   741.1988    0.1
  6231.095   744.5036    0.1
  6231.113   747.7777    0.1
  6231.130   749.5655    0.1
  6231.148   750.6644    0.1
  6231.165   754.3635    0.1
  6231.182   757.3144    0.1
  6231.200   759.1686    0.1
  6231.217   761.0775    0.1
  6231.235   762.0959    0.1
  6231.252   762.7509    0.1
  6231.269   764.0525    0.1
  6231.287   767.1766    0.1
  6231.304   769.0193    0.1
  6231.322   766.8282    0.1
  6231.339   769.0129    0.1
  6231.356   772.6854    0.1
  6231.374   776.3587    0.1
  6231.391   776.5583    0.1
  6231.409   776.5716    0.1
  6231.426   777.9462    0.1
  6231.443   781.8335    0.1
  6231.461   783.4341    0.1
  6231.478   783.6044    0.1
  6231.496   788.4699    0.1
  6231.513   791.0418    0.1
  6231.530   791.6598    0.1
  6231.548   792.8235    0.1
  6231.565   790.6401    0.1
  6231.582   788.2561    0.1
  6231.600   787.8378    0.1
  6231.617   787.7870    0.1
  6231.635   787.5036    0.1
  6231.652   786.9429    0.1
  6231.669   784.5245    0.1
  6231.687   781.3755    0.1
  6231.704   778.0118    0.1
  6231.722   777.1031    0.1
  6231.739   775.7851    0.1
  6231.756   773.9737    0.1
  6231.774   773.4562    0.1
  6231.791   771.4406    0.1
  6231.809   769.8429    0.1
  6231.826   771.6112    0.1
  6231.843   770.6942    0.1
  6231.861   768.0550    0.1
  6231.878   764.0079    0.1
  6231.896   747.9507    0.1
  6231.913   740.6501    0.1
  6231.930   744.5279    0.1
  6231.948   761.4878    0.1
  6231.965   767.8311    0.1
  6231.983   766.1451    0.1
  6232.000   763.4863    0.1
  6232.017   757.8545    0.1
  6232.035   751.1167    0.1
  6232.052   742.9328    0.1
  6232.070   733.1192    0.1
  6232.087   723.4847    0.1
  6232.104   711.1504    0.1
  6232.122   691.0831    0.1
  6232.139   673.6648    0.1
  6232.157   656.8349    0.1
  6232.174   629.0507    0.1
  6232.191   604.5761    0.1
  6232.209   582.9367    0.1
  6232.226   550.6696    0.1
  6232.244   524.4243    0.1
  6232.261   502.6916    0.1
  6232.278   472.7005    0.1
  6232.296   451.4709    0.1
  6232.313   438.4631    0.1
  6232.331   426.8121    0.1
  6232.348   423.3743    0.1
  6232.365   426.0773    0.1
  6232.383   432.9368    0.1
  6232.400   451.6510    0.1
  6232.418   471.2390    0.1
  6232.435   490.0675    0.1
  6232.452   524.7847    0.1
  6232.470   554.8231    0.1
  6232.487   579.3107    0.1
  6232.505   613.8828    0.1
  6232.522   642.0119    0.1
  6232.539   661.9411    0.1
  6232.557   683.1329    0.1
  6232.574   704.3169    0.1
  6232.592   718.3168    0.1
  6232.609   728.8394    0.1
  6232.626   740.5017    0.1
  6232.644   744.8775    0.1
  6232.661   744.2025    0.1
  6232.679   740.5409    0.1
  6232.696   737.2605    0.1
  6232.713   733.8586    0.1
  6232.731   724.6907    0.1
  6232.748   714.9933    0.1
  6232.766   706.4997    0.1
  6232.783   694.7264    0.1
  6232.800   682.8134    0.1
  6232.818   673.7106    0.1
  6232.835   664.4627    0.1
  6232.853   654.1195    0.1
  6232.870   647.5797    0.1
  6232.887   643.2096    0.1
  6232.905   641.6690    0.1
  6232.922   643.9189    0.1
  6232.940   647.9426    0.1
  6232.957   656.0271    0.1
  6232.974   665.8949    0.1
  6232.992   675.0504    0.1
  6233.009   686.1490    0.1
  6233.027   698.7251    0.1
  6233.044   707.2028    0.1
  6233.061   713.6855    0.1
  6233.079   725.3843    0.1
  6233.096   732.6136    0.1
  6233.114   736.0879    0.1
  6233.131   737.2215    0.1
  6233.148   737.6031    0.1
  6233.166   737.7249    0.1
  6233.183   736.5396    0.1
  6233.201   737.1556    0.1
  6233.218   737.9236    0.1
  6233.235   737.4990    0.1
  6233.253   735.7006    0.1
  6233.270   736.1158    0.1
  6233.288   738.8773    0.1
  6233.305   740.2193    0.1
  6233.322   742.2168    0.1
  6233.340   744.8678    0.1
  6233.357   746.7917    0.1
  6233.375   748.7079    0.1
  6233.392   751.5704    0.1
  6233.409   758.3759    0.1
  6233.427   762.7659    0.1
  6233.444   764.3283    0.1
  6233.462   765.2062    0.1
  6233.479   768.5981    0.1
  6233.496   771.8755    0.1
  6233.514   774.6111    0.1
  6233.531   775.8842    0.1
  6233.549   776.6148    0.1
  6233.566   777.2176    0.1
  6233.583   777.0250    0.1
  6233.601   773.0876    0.1
  6233.618   770.0766    0.1
  6233.636   770.9298    0.1
  6233.653   771.0647    0.1
  6233.670   769.7729    0.1
  6233.688   767.8859    0.1
  6233.705   767.8799    0.1
  6233.723   769.7480    0.1
  6233.740   772.0713    0.1
  6233.757   772.9022    0.1
  6233.775   774.5192    0.1
  6233.792   776.3064    0.1
  6233.810   777.2626    0.1
  6233.827   781.6065    0.1
  6233.844   784.6249    0.1
  6233.862   784.6263    0.1
  6233.879   787.4746    0.1
  6233.896   791.7475    0.1
  6233.914   795.9833    0.1
  6233.931   794.6979    0.1
  6233.949   792.8213    0.1
  6233.966   792.6882    0.1
  6233.983   796.3013    0.1
  6234.001   798.6024    0.1
  6234.018   798.7111    0.1
  6234.036   797.2651    0.1
  6234.053   798.4698    0.1
  6234.070   799.4540    0.1
  6234.088   799.1997    0.1
  6234.105   798.1029    0.1
  6234.123   796.9342    0.1
  6234.140   795.9692    0.1
  6234.157   795.9479    0.1
  6234.175   797.4215    0.1
  6234.192   798.4121    0.1
  6234.210   797.4973    0.1
  6234.227   795.4245    0.1
  6234.244   794.4371    0.1
  6234.262   794.6853    0.1
  6234.279   795.8311    0.1
  6234.297   794.4398    0.1
  6234.314   791.7733    0.1
  6234.331   793.9047    0.1
  6234.349   794.4710    0.1
  6234.366   793.7328    0.1
  6234.384   793.9778    0.1
  6234.401   791.0449    0.1
  6234.418   789.3517    0.1
  6234.436   791.0404    0.1
  6234.453   791.3961    0.1
  6234.471   789.0799    0.1
  6234.488   785.6794    0.1
  6234.505   783.9543    0.1
  6234.523   782.7993    0.1
  6234.540   781.9582    0.1
  6234.558   782.6096    0.1
  6234.575   781.7001    0.1
  6234.592   779.7608    0.1
  6234.610   777.1589    0.1
  6234.627   776.3194    0.1
  6234.645   775.3210    0.1
  6234.662   773.5723    0.1
  6234.679   772.0949    0.1
  6234.697   772.8187    0.1
  6234.714   774.3616    0.1
  6234.732   776.0744    0.1
  6234.749   777.0601    0.1
  6234.766   778.9941    0.1
  6234.784   783.5198    0.1
  6234.801   782.4516    0.1
  6234.819   781.7888    0.1
  6234.836   783.4713    0.1
  6234.853   786.2834    0.1
  6234.871   786.3052    0.1
  6234.888   785.2031    0.1
  6234.906   785.1161    0.1
  6234.923   783.5860    0.1
  6234.940   782.2729    0.1
  6234.958   782.3617    0.1
  6234.975   782.1996    0.1
  6234.993   780.8152    0.1
  6235.010   778.7521    0.1
  6235.027   778.9207    0.1
  6235.045   777.9228    0.1
  6235.062   776.3294    0.1
  6235.080   776.4714    0.1
  6235.097   775.9639    0.1
  6235.114   774.5817    0.1
  6235.132   772.2378    0.1
  6235.149   771.5827    0.1
  6235.167   771.2218    0.1
  6235.184   770.4319    0.1
  6235.201   768.2265    0.1
  6235.219   765.4820    0.1
  6235.236   763.7578    0.1
  6235.254   766.6175    0.1
  6235.271   767.0523    0.1
  6235.288   767.3745    0.1
  6235.306   770.5647    0.1
  6235.323   772.5649    0.1
  6235.341   773.9404    0.1
  6235.358   775.7981    0.1
  6235.375   779.6554    0.1
  6235.393   782.0509    0.1
  6235.410   783.5427    0.1
  6235.428   785.8973    0.1
  6235.445   786.6309    0.1
  6235.462   786.6147    0.1
  6235.480   786.7829    0.1
  6235.497   786.3009    0.1
  6235.515   785.4074    0.1
  6235.532   784.5244    0.1
  6235.549   786.3834    0.1
  6235.567   787.4242    0.1
  6235.584   786.4928    0.1
  6235.602   781.4071    0.1
  6235.619   777.9664    0.1
  6235.636   775.9601    0.1
  6235.654   773.4664    0.1
  6235.671   772.6827    0.1
  6235.689   771.1677    0.1
  6235.706   768.6905    0.1
  6235.723   767.3762    0.1
  6235.741   766.0978    0.1
  6235.758   765.4760    0.1
  6235.776   767.3269    0.1
  6235.793   766.2379    0.1
  6235.810   766.1231    0.1
  6235.828   768.8218    0.1
  6235.845   769.2013    0.1
  6235.863   769.7784    0.1
  6235.880   771.3899    0.1
  6235.897   774.7386    0.1
  6235.915   776.8568    0.1
  6235.932   778.1440    0.1
  6235.950   779.8525    0.1
  6235.967   779.4065    0.1
  6235.984   779.9875    0.1
  6236.002   782.5253    0.1
  6236.019   784.0347    0.1
  6236.037   784.8539    0.1
  6236.054   785.6753    0.1
  6236.071   787.0982    0.1
  6236.089   787.1982    0.1
  6236.106   786.9434    0.1
  6236.123   787.3463    0.1
  6236.141   788.8607    0.1
  6236.158   787.2431    0.1
  6236.176   783.1122    0.1
  6236.193   782.3488    0.1
  6236.210   782.0156    0.1
  6236.228   781.2962    0.1
  6236.245   780.8877    0.1
  6236.263   778.5760    0.1
  6236.280   777.7986    0.1
  6236.297   779.8151    0.1
  6236.315   777.5893    0.1
  6236.332   778.9005    0.1
  6236.350   783.2177    0.1
  6236.367   784.3231    0.1
  6236.384   785.0204    0.1
  6236.402   786.5517    0.1
  6236.419   789.5173    0.1
  6236.437   789.9203    0.1
  6236.454   789.8829    0.1
  6236.471   790.7250    0.1
  6236.489   791.7831    0.1
  6236.506   792.6813    0.1
  6236.524   793.4007    0.1
  6236.541   793.5561    0.1
  6236.558   794.0121    0.1
  6236.576   793.9182    0.1
  6236.593   792.7864    0.1
  6236.611   793.1659    0.1
  6236.628   792.4866    0.1
  6236.645   790.5772    0.1
  6236.663   788.3208    0.1
  6236.680   784.9182    0.1
  6236.698   781.7240    0.1
  6236.715   779.4261    0.1
  6236.732   774.1462    0.1
  6236.750   768.0910    0.1
  6236.767   761.6116    0.1
  6236.785   750.0943    0.1
  6236.802   740.8298    0.1
  6236.819   732.2591    0.1
  6236.837   712.7904    0.1
  6236.854   695.1000    0.1
  6236.872   681.1625    0.1
  6236.889   664.2528    0.1
  6236.906   643.8711    0.1
  6236.924   627.4348    0.1
  6236.941   612.6620    0.1
  6236.959   592.9792    0.1
  6236.976   579.0400    0.1
  6236.993   569.6387    0.1
  6237.011   561.9241    0.1
  6237.028   557.3077    0.1
  6237.046   557.6126    0.1
  6237.063   562.2485    0.1
  6237.080   574.2198    0.1
  6237.098   586.2426    0.1
  6237.115   597.6707    0.1
  6237.133   614.8817    0.1
  6237.150   632.4463    0.1
  6237.167   647.7959    0.1
  6237.185   665.6967    0.1
  6237.202   684.6412    0.1
  6237.220   696.2631    0.1
  6237.237   704.1444    0.1
  6237.254   715.8969    0.1
  6237.272   724.4371    0.1
  6237.289   730.0176    0.1
  6237.307   735.6586    0.1
  6237.324   743.3507    0.1
  6237.341   747.8042    0.1
  6237.359   749.3520    0.1
  6237.376   751.0839    0.1
  6237.394   753.7035    0.1
  6237.411   756.2516    0.1
  6237.428   757.9225    0.1
  6237.446   758.6227    0.1
  6237.463   759.0822    0.1
  6237.481   759.9103    0.1
  6237.498   764.2196    0.1
  6237.515   765.5610    0.1
  6237.533   764.9587    0.1
  6237.550   768.6001    0.1
  6237.568   772.9431    0.1
  6237.585   776.1221    0.1
  6237.602   779.1910    0.1
  6237.620   781.5882    0.1
  6237.637   783.3808    0.1
  6237.655   785.1000    0.1
  6237.672   786.4578    0.1
  6237.689   787.1704    0.1
  6237.707   787.3715    0.1
  6237.724   786.7579    0.1
  6237.742   784.6528    0.1
  6237.759   782.3923    0.1
  6237.776   780.3074    0.1
  6237.794   776.2161    0.1
  6237.811   770.3667    0.1
  6237.829   763.9650    0.1
  6237.846   755.0628    0.1
  6237.863   743.4037    0.1
  6237.881   732.3791    0.1
  6237.898   720.3335    0.1
  6237.916   702.9160    0.1
  6237.933   687.5908    0.1
  6237.950   673.0588    0.1
  6237.968   650.7969    0.1
  6237.985   631.2871    0.1
  6238.003   616.4472    0.1
  6238.020   601.7665    0.1
  6238.037   584.3400    0.1
  6238.055   572.6503    0.1
  6238.072   564.9017    0.1
  6238.090   558.5546    0.1
  6238.107   556.3080    0.1
  6238.124   558.1526    0.1
  6238.142   566.5459    0.1
  6238.159   577.5195    0.1
  6238.177   587.9253    0.1
  6238.194   599.2555    0.1
  6238.211   618.6291    0.1
  6238.229   634.6376    0.1
  6238.246   647.1886    0.1
  6238.264   662.0028    0.1
  6238.281   677.0021    0.1
  6238.298   688.2472    0.1
  6238.316   698.0785    0.1
  6238.333   707.8920    0.1
  6238.350   715.6214    0.1
  6238.368   722.6075    0.1
  6238.385   731.8999    0.1
  6238.403   740.7895    0.1
  6238.420   746.7553    0.1
  6238.437   751.1777    0.1
  6238.455   758.8273    0.1
  6238.472   763.0698    0.1
  6238.490   764.9629    0.1
  6238.507   769.0420    0.1
  6238.524   774.8887    0.1
  6238.542   779.1676    0.1
  6238.559   781.9140    0.1
  6238.577   785.2437    0.1
  6238.594   787.4334    0.1
  6238.611   789.0421    0.1
  6238.629   792.4652    0.1
  6238.646   793.5595    0.1
  6238.664   793.4973    0.1
  6238.681   793.9495    0.1
  6238.698   794.1852    0.1
  6238.716   793.5804    0.1
  6238.733   792.4936    0.1
  6238.751   791.1708    0.1
  6238.768   792.3016    0.1
  6238.785   792.5580    0.1
  6238.803   789.2024    0.1
  6238.820   785.1747    0.1
  6238.838   780.9177    0.1
  6238.855   776.0727    0.1
  6238.872   771.2257    0.1
  6238.890   764.9794    0.1
  6238.907   758.3970    0.1
  6238.925   751.3253    0.1
  6238.942   742.7118    0.1
  6238.959   735.5000    0.1
  6238.977   728.9683    0.1
  6238.994   717.3193    0.1
  6239.012   710.7684    0.1
  6239.029   706.7652    0.1
  6239.046   700.1141    0.1
  6239.064   697.1912    0.1
  6239.081   698.0787    0.1
  6239.099   700.2789    0.1
  6239.116   701.1014    0.1
  6239.133   705.6849    0.1
  6239.151   711.8765    0.1
  6239.168   718.6026    0.1
  6239.186   727.2952    0.1
  6239.203   735.7096    0.1
  6239.220   743.8069    0.1
  6239.238   747.4376    0.1
  6239.255   750.9490    0.1
  6239.273   754.3219    0.1
  6239.290   755.6444    0.1
  6239.307   757.9546    0.1
  6239.325   756.5345    0.1
  6239.342   751.2473    0.1
  6239.360   744.3063    0.1
  6239.377   737.7579    0.1
  6239.394   731.5354    0.1
  6239.412   723.5943    0.1
  6239.429   715.5073    0.1
  6239.447   708.8097    0.1
  6239.464   702.2026    0.1
  6239.481   690.7853    0.1
  6239.499   683.1791    0.1
  6239.516   678.4946    0.1
  6239.534   673.6106    0.1
  6239.551   665.2925    0.1
  6239.568   660.6382    0.1
  6239.586   660.0641    0.1
  6239.603   658.3291    0.1
  6239.621   655.9475    0.1
  6239.638   654.5333    0.1
  6239.655   655.1385    0.1
  6239.673   656.5505    0.1
  6239.690   657.7577    0.1
  6239.708   658.9268    0.1
  6239.725   659.6132    0.1
  6239.742   658.0086    0.1
  6239.760   655.7796    0.1
  6239.777   654.1581    0.1
  6239.795   650.9661    0.1
  6239.812   648.0285    0.1
  6239.829   645.3408    0.1
  6239.847   634.8688    0.1
  6239.864   628.5823    0.1
  6239.882   624.6474    0.1
  6239.899   617.3988    0.1
  6239.916   613.1957    0.1
  6239.934   610.3322    0.1
  6239.951   607.3216    0.1
  6239.969   609.7378    0.1
