#  wavelength    Flux         Std.Dev.
#  [Angstroem]   [F(5500)]    [N/A]

  6270.016   531.2173    0.1
  6270.033   559.0968    0.1
  6270.050   586.1397    0.1
  6270.068   611.3457    0.1
  6270.085   640.5292    0.1
  6270.103   663.0444    0.1
  6270.120   688.8883    0.1
  6270.137   710.1025    0.1
  6270.155   725.2905    0.1
  6270.172   743.5096    0.1
  6270.190   755.1749    0.1
  6270.207   764.8181    0.1
  6270.224   774.6902    0.1
  6270.242   781.1799    0.1
  6270.259   784.3844    0.1
  6270.277   787.6607    0.1
  6270.294   791.7047    0.1
  6270.311   794.5957    0.1
  6270.329   795.2675    0.1
  6270.346   793.3995    0.1
  6270.364   791.2578    0.1
  6270.381   790.0658    0.1
  6270.398   788.9599    0.1
  6270.416   789.5808    0.1
  6270.433   788.1211    0.1
  6270.451   786.4171    0.1
  6270.468   785.3181    0.1
  6270.485   782.6277    0.1
  6270.503   781.1510    0.1
  6270.520   779.8987    0.1
  6270.538   778.9603    0.1
  6270.555   778.4417    0.1
  6270.572   779.1619    0.1
  6270.590   779.1100    0.1
  6270.607   777.6232    0.1
  6270.625   776.2588    0.1
  6270.642   777.9383    0.1
  6270.659   778.8772    0.1
  6270.677   774.7056    0.1
  6270.694   771.1179    0.1
  6270.712   767.7220    0.1
  6270.729   763.6030    0.1
  6270.746   759.2964    0.1
  6270.764   749.0082    0.1
  6270.781   739.9709    0.1
  6270.799   731.0170    0.1
  6270.816   716.5961    0.1
  6270.833   703.4484    0.1
  6270.851   685.9015    0.1
  6270.868   669.2649    0.1
  6270.886   654.9620    0.1
  6270.903   638.2489    0.1
  6270.920   624.6769    0.1
  6270.938   611.1235    0.1
  6270.955   601.4419    0.1
  6270.973   596.2173    0.1
  6270.990   590.8152    0.1
  6271.007   591.1980    0.1
  6271.025   594.9512    0.1
  6271.042   603.5704    0.1
  6271.060   613.0161    0.1
  6271.077   625.3629    0.1
  6271.094   639.5927    0.1
  6271.112   651.3482    0.1
  6271.129   668.0739    0.1
  6271.147   680.8173    0.1
  6271.164   691.7682    0.1
  6271.181   703.7910    0.1
  6271.199   711.1370    0.1
  6271.216   716.5443    0.1
  6271.234   719.7077    0.1
  6271.251   723.1640    0.1
  6271.268   723.6703    0.1
  6271.286   722.9500    0.1
  6271.303   722.8460    0.1
  6271.321   720.6356    0.1
  6271.338   717.0722    0.1
  6271.355   710.8933    0.1
  6271.373   706.8337    0.1
  6271.390   703.9482    0.1
  6271.408   701.0000    0.1
  6271.425   698.6076    0.1
  6271.442   696.3887    0.1
  6271.460   696.2792    0.1
  6271.477   697.5277    0.1
  6271.495   704.9955    0.1
  6271.512   709.4485    0.1
  6271.529   712.1821    0.1
  6271.547   716.3198    0.1
  6271.564   720.0308    0.1
  6271.582   725.2386    0.1
  6271.599   729.2745    0.1
  6271.616   732.0676    0.1
  6271.634   737.6576    0.1
  6271.651   740.5354    0.1
  6271.669   741.6033    0.1
  6271.686   742.6525    0.1
  6271.703   742.8108    0.1
  6271.721   744.7698    0.1
  6271.738   747.2518    0.1
  6271.756   748.1292    0.1
  6271.773   748.9971    0.1
  6271.790   751.6874    0.1
  6271.808   755.7362    0.1
  6271.825   757.2683    0.1
  6271.843   758.9420    0.1
  6271.860   762.6958    0.1
  6271.877   766.4722    0.1
  6271.895   767.6415    0.1
  6271.912   770.7469    0.1
  6271.930   773.1256    0.1
  6271.947   774.2242    0.1
  6271.964   775.9481    0.1
  6271.982   776.1486    0.1
  6271.999   773.4757    0.1
  6272.017   772.8460    0.1
  6272.034   773.7646    0.1
  6272.051   773.9619    0.1
  6272.069   773.1693    0.1
  6272.086   770.4903    0.1
  6272.104   769.4247    0.1
  6272.121   768.4943    0.1
  6272.138   765.4851    0.1
  6272.156   763.0748    0.1
  6272.173   760.5415    0.1
  6272.191   754.9824    0.1
  6272.208   751.7513    0.1
  6272.225   750.6535    0.1
  6272.243   747.7209    0.1
  6272.260   746.0466    0.1
  6272.277   744.3333    0.1
  6272.295   743.9592    0.1
  6272.312   744.7391    0.1
  6272.330   744.7764    0.1
  6272.347   744.3568    0.1
  6272.364   744.3000    0.1
  6272.382   746.7386    0.1
  6272.399   750.5359    0.1
  6272.417   754.4137    0.1
  6272.434   755.9816    0.1
  6272.451   756.8485    0.1
  6272.469   763.0026    0.1
  6272.486   767.2573    0.1
  6272.504   768.5486    0.1
  6272.521   769.5062    0.1
  6272.538   770.1609    0.1
  6272.556   770.6363    0.1
  6272.573   769.1452    0.1
  6272.591   765.8722    0.1
  6272.608   766.0306    0.1
  6272.625   766.3862    0.1
  6272.643   764.9098    0.1
  6272.660   762.9929    0.1
  6272.678   761.8779    0.1
  6272.695   756.3415    0.1
  6272.712   753.4728    0.1
  6272.730   753.0099    0.1
  6272.747   752.0907    0.1
  6272.765   752.4350    0.1
  6272.782   750.5836    0.1
  6272.799   750.8239    0.1
  6272.817   752.2904    0.1
  6272.834   752.1388    0.1
  6272.852   753.1563    0.1
  6272.869   756.0241    0.1
  6272.886   757.7457    0.1
  6272.904   758.1446    0.1
  6272.921   762.0064    0.1
  6272.939   764.6634    0.1
  6272.956   766.3705    0.1
  6272.973   767.2549    0.1
  6272.991   768.0669    0.1
  6273.008   768.2299    0.1
  6273.026   767.5948    0.1
  6273.043   767.2441    0.1
  6273.060   767.7160    0.1
  6273.078   768.2401    0.1
  6273.095   768.7569    0.1
  6273.113   771.0297    0.1
  6273.130   771.8966    0.1
  6273.147   771.5496    0.1
  6273.165   771.2543    0.1
  6273.182   771.7647    0.1
  6273.200   775.5082    0.1
  6273.217   778.6545    0.1
  6273.234   780.7121    0.1
  6273.252   782.2969    0.1
  6273.269   782.9121    0.1
  6273.287   783.3627    0.1
  6273.304   782.9099    0.1
  6273.321   783.0787    0.1
  6273.339   786.9639    0.1
  6273.356   786.8681    0.1
  6273.374   784.5408    0.1
  6273.391   782.8378    0.1
  6273.408   781.4796    0.1
  6273.426   779.4727    0.1
  6273.443   776.0688    0.1
  6273.461   773.5229    0.1
  6273.478   770.8956    0.1
  6273.495   767.2717    0.1
  6273.513   763.7284    0.1
  6273.530   759.4536    0.1
  6273.548   756.5021    0.1
  6273.565   753.5538    0.1
  6273.582   751.6076    0.1
  6273.600   750.2722    0.1
  6273.617   746.7915    0.1
  6273.635   743.4682    0.1
  6273.652   741.1414    0.1
  6273.669   741.6139    0.1
  6273.687   742.4395    0.1
  6273.704   743.1303    0.1
  6273.722   745.1723    0.1
  6273.739   747.0358    0.1
  6273.756   749.8858    0.1
  6273.774   753.5574    0.1
  6273.791   757.0222    0.1
  6273.809   764.6240    0.1
  6273.826   766.8853    0.1
  6273.843   765.1127    0.1
  6273.861   768.8885    0.1
  6273.878   773.1558    0.1
  6273.896   777.9915    0.1
  6273.913   780.1294    0.1
  6273.930   780.6386    0.1
  6273.948   783.6291    0.1
  6273.965   785.4633    0.1
  6273.983   786.4227    0.1
  6274.000   784.4426    0.1
  6274.017   783.0460    0.1
  6274.035   783.9852    0.1
  6274.052   782.7107    0.1
  6274.070   780.5372    0.1
  6274.087   775.7666    0.1
  6274.104   770.0863    0.1
  6274.122   762.9738    0.1
  6274.139   752.5256    0.1
  6274.157   744.0676    0.1
  6274.174   731.8469    0.1
  6274.191   718.5264    0.1
  6274.209   708.4164    0.1
  6274.226   688.6710    0.1
  6274.244   673.3042    0.1
  6274.261   660.1927    0.1
  6274.278   643.0277    0.1
  6274.296   631.1884    0.1
  6274.313   619.4478    0.1
  6274.331   609.2868    0.1
  6274.348   603.3860    0.1
  6274.365   603.1275    0.1
  6274.383   606.2363    0.1
  6274.400   610.7564    0.1
  6274.418   622.3122    0.1
  6274.435   633.1081    0.1
  6274.452   647.3397    0.1
  6274.470   664.5549    0.1
  6274.487   677.7602    0.1
  6274.505   695.2970    0.1
  6274.522   709.4432    0.1
  6274.539   720.8955    0.1
  6274.557   732.3136    0.1
  6274.574   739.1930    0.1
  6274.591   745.6459    0.1
  6274.609   750.3846    0.1
  6274.626   753.1812    0.1
  6274.644   758.1346    0.1
  6274.661   761.6759    0.1
  6274.678   763.9243    0.1
  6274.696   765.2484    0.1
  6274.713   767.4423    0.1
  6274.731   771.6766    0.1
  6274.748   770.5119    0.1
  6274.765   769.2294    0.1
  6274.783   773.8123    0.1
  6274.800   775.4496    0.1
  6274.818   774.8913    0.1
  6274.835   776.9741    0.1
  6274.852   778.5641    0.1
  6274.870   779.5229    0.1
  6274.887   777.4106    0.1
  6274.905   775.6863    0.1
  6274.922   775.9723    0.1
  6274.939   776.6400    0.1
  6274.957   777.0170    0.1
  6274.974   776.3557    0.1
  6274.992   776.6886    0.1
  6275.009   777.9660    0.1
  6275.026   777.0257    0.1
  6275.044   776.4352    0.1
  6275.061   777.6829    0.1
  6275.079   780.0355    0.1
  6275.096   781.7901    0.1
  6275.113   782.2437    0.1
  6275.131   783.5982    0.1
  6275.148   785.7217    0.1
  6275.166   786.4884    0.1
  6275.183   785.6774    0.1
  6275.200   783.4585    0.1
  6275.218   782.6775    0.1
  6275.235   782.6226    0.1
  6275.253   781.9402    0.1
  6275.270   777.7874    0.1
  6275.287   772.4856    0.1
  6275.305   768.5935    0.1
  6275.322   766.1790    0.1
  6275.340   763.4031    0.1
  6275.357   760.0101    0.1
  6275.374   757.0952    0.1
  6275.392   751.7652    0.1
  6275.409   747.7532    0.1
  6275.427   745.4802    0.1
  6275.444   743.6348    0.1
  6275.461   743.5202    0.1
  6275.479   744.4817    0.1
  6275.496   746.3729    0.1
  6275.514   748.6845    0.1
  6275.531   753.5153    0.1
  6275.548   755.4692    0.1
  6275.566   755.9915    0.1
  6275.583   761.9589    0.1
  6275.601   766.2477    0.1
  6275.618   768.8484    0.1
  6275.635   772.4838    0.1
  6275.653   775.2643    0.1
  6275.670   778.6289    0.1
  6275.688   780.4558    0.1
  6275.705   780.6101    0.1
  6275.722   778.7349    0.1
  6275.740   778.0639    0.1
  6275.757   778.3830    0.1
  6275.775   778.5048    0.1
  6275.792   777.4246    0.1
  6275.809   775.2918    0.1
  6275.827   776.2756    0.1
  6275.844   776.9016    0.1
  6275.862   774.5595    0.1
  6275.879   773.4522    0.1
  6275.896   773.3590    0.1
  6275.914   773.0800    0.1
  6275.931   772.6317    0.1
  6275.949   772.0942    0.1
  6275.966   771.6355    0.1
  6275.983   771.1580    0.1
  6276.001   770.1673    0.1
  6276.018   765.7137    0.1
  6276.036   760.0110    0.1
  6276.053   743.8744    0.1
  6276.070   718.2354    0.1
  6276.088   691.6141    0.1
  6276.105   656.5699    0.1
  6276.123   641.9920    0.1
  6276.140   641.8872    0.1
  6276.157   664.3315    0.1
  6276.175   688.3154    0.1
  6276.192   721.8521    0.1
  6276.210   743.0568    0.1
  6276.227   752.3598    0.1
  6276.244   753.3563    0.1
  6276.262   745.0625    0.1
  6276.279   731.3239    0.1
  6276.297   696.6862    0.1
  6276.314   667.6110    0.1
  6276.331   636.7392    0.1
  6276.349   636.6007    0.1
  6276.366   651.2235    0.1
  6276.384   681.1705    0.1
  6276.401   699.4949    0.1
  6276.418   707.7911    0.1
  6276.436   705.9585    0.1
  6276.453   703.6031    0.1
  6276.471   704.0491    0.1
  6276.488   714.2870    0.1
  6276.505   724.8398    0.1
  6276.523   738.6426    0.1
  6276.540   747.0097    0.1
  6276.558   750.8015    0.1
  6276.575   757.8459    0.1
  6276.592   761.2309    0.1
  6276.610   762.2658    0.1
  6276.627   764.4095    0.1
  6276.645   764.8052    0.1
  6276.662   762.8340    0.1
  6276.679   757.8954    0.1
  6276.697   754.3387    0.1
  6276.714   754.2136    0.1
  6276.732   747.9242    0.1
  6276.749   738.7543    0.1
  6276.766   712.0168    0.1
  6276.784   682.6422    0.1
  6276.801   647.1871    0.1
  6276.818   601.5481    0.1
  6276.836   582.1017    0.1
  6276.853   593.8574    0.1
  6276.871   614.2137    0.1
  6276.888   627.5853    0.1
  6276.905   623.7489    0.1
  6276.923   609.2192    0.1
  6276.940   592.4145    0.1
  6276.958   582.6176    0.1
  6276.975   582.6118    0.1
  6276.992   588.7409    0.1
  6277.010   604.6094    0.1
  6277.027   618.5838    0.1
  6277.045   635.7158    0.1
  6277.062   648.2026    0.1
  6277.079   654.7295    0.1
  6277.097   655.0070    0.1
  6277.114   644.3249    0.1
  6277.132   626.8860    0.1
  6277.149   611.3159    0.1
  6277.166   614.4121    0.1
  6277.184   640.9367    0.1
  6277.201   673.4905    0.1
  6277.219   695.5087    0.1
  6277.236   718.2407    0.1
  6277.253   726.2511    0.1
  6277.271   725.2190    0.1
  6277.288   716.9208    0.1
  6277.306   713.9676    0.1
  6277.323   716.4710    0.1
  6277.340   727.5055    0.1
  6277.358   736.7686    0.1
  6277.375   745.3803    0.1
  6277.393   750.4304    0.1
  6277.410   751.8815    0.1
  6277.427   749.8017    0.1
  6277.445   751.1802    0.1
  6277.462   754.9147    0.1
  6277.480   755.1140    0.1
  6277.497   748.3860    0.1
  6277.514   734.2335    0.1
  6277.532   706.5286    0.1
  6277.549   675.4816    0.1
  6277.567   615.5963    0.1
  6277.584   562.7053    0.1
  6277.601   533.1479    0.1
  6277.619   526.2953    0.1
  6277.636   542.7797    0.1
  6277.654   569.0479    0.1
  6277.671   628.6544    0.1
  6277.688   672.9383    0.1
  6277.706   710.2467    0.1
  6277.723   734.6873    0.1
  6277.741   743.1333    0.1
  6277.758   744.6227    0.1
  6277.775   740.8905    0.1
  6277.793   736.1265    0.1
  6277.810   724.2549    0.1
  6277.828   716.5320    0.1
  6277.845   711.7209    0.1
  6277.862   691.7990    0.1
  6277.880   677.5425    0.1
  6277.897   668.9663    0.1
  6277.915   670.6217    0.1
  6277.932   676.2117    0.1
  6277.949   685.4051    0.1
  6277.967   693.4138    0.1
  6277.984   698.6462    0.1
  6278.002   709.7932    0.1
  6278.019   716.7132    0.1
  6278.036   720.7775    0.1
  6278.054   727.6510    0.1
  6278.071   733.0990    0.1
  6278.089   739.2303    0.1
  6278.106   747.3369    0.1
  6278.123   752.9532    0.1
  6278.141   757.6944    0.1
  6278.158   761.8715    0.1
  6278.176   764.8954    0.1
  6278.193   765.9152    0.1
  6278.210   767.4737    0.1
  6278.228   770.1040    0.1
  6278.245   769.9089    0.1
  6278.263   769.2680    0.1
  6278.280   769.4352    0.1
  6278.297   763.6432    0.1
  6278.315   755.6465    0.1
  6278.332   738.7889    0.1
  6278.350   705.6278    0.1
  6278.367   673.0127    0.1
  6278.384   625.3007    0.1
  6278.402   616.1144    0.1
  6278.419   633.6106    0.1
  6278.437   678.7204    0.1
  6278.454   713.3442    0.1
  6278.471   742.3547    0.1
  6278.489   757.5032    0.1
  6278.506   760.6783    0.1
  6278.524   758.8599    0.1
  6278.541   744.7030    0.1
  6278.558   727.3999    0.1
  6278.576   678.4366    0.1
  6278.593   633.5137    0.1
  6278.611   595.2786    0.1
  6278.628   595.3319    0.1
  6278.645   620.2426    0.1
  6278.663   666.1434    0.1
  6278.680   711.2861    0.1
  6278.698   736.1977    0.1
  6278.715   752.9021    0.1
  6278.732   758.1184    0.1
  6278.750   758.1041    0.1
  6278.767   759.2728    0.1
  6278.785   760.2666    0.1
  6278.802   761.0220    0.1
  6278.819   760.8627    0.1
  6278.837   759.6120    0.1
  6278.854   757.0835    0.1
  6278.872   752.5993    0.1
  6278.889   748.4070    0.1
  6278.906   741.7833    0.1
  6278.924   735.0389    0.1
  6278.941   730.2928    0.1
  6278.959   725.1194    0.1
  6278.976   718.1935    0.1
  6278.993   710.4946    0.1
  6279.011   703.8698    0.1
  6279.028   701.5586    0.1
  6279.045   701.3499    0.1
  6279.063   702.2034    0.1
  6279.080   704.0341    0.1
  6279.098   708.8043    0.1
  6279.115   712.7849    0.1
  6279.132   715.5470    0.1
  6279.150   722.8822    0.1
  6279.167   726.0556    0.1
  6279.185   726.3042    0.1
  6279.202   723.7102    0.1
  6279.219   720.6207    0.1
  6279.237   717.0605    0.1
  6279.254   708.7458    0.1
  6279.272   698.8734    0.1
  6279.289   681.6301    0.1
  6279.306   661.6540    0.1
  6279.324   644.8828    0.1
  6279.341   612.3300    0.1
  6279.359   574.0837    0.1
  6279.376   541.1608    0.1
  6279.393   479.8892    0.1
  6279.411   453.3482    0.1
  6279.428   449.5373    0.1
  6279.446   471.3136    0.1
  6279.463   494.2886    0.1
  6279.480   519.7147    0.1
  6279.498   545.7384    0.1
  6279.515   563.5226    0.1
  6279.533   585.6008    0.1
  6279.550   604.6273    0.1
  6279.567   618.0734    0.1
  6279.585   640.1934    0.1
  6279.602   658.9525    0.1
  6279.620   674.9514    0.1
  6279.637   693.1956    0.1
  6279.654   704.2887    0.1
  6279.672   713.8639    0.1
  6279.689   724.9129    0.1
  6279.707   731.3894    0.1
  6279.724   735.6656    0.1
  6279.741   736.9895    0.1
  6279.759   737.4029    0.1
  6279.776   740.8356    0.1
  6279.794   740.2103    0.1
  6279.811   737.1658    0.1
  6279.828   725.5531    0.1
  6279.846   706.3295    0.1
  6279.863   678.8963    0.1
  6279.881   625.3036    0.1
  6279.898   592.0978    0.1
  6279.915   575.0916    0.1
  6279.933   602.2326    0.1
  6279.950   637.2561    0.1
  6279.968   683.8279    0.1
  6279.985   714.7561    0.1
  6280.002   730.1881    0.1
  6280.020   739.9912    0.1
  6280.037   739.7054    0.1
  6280.055   734.8455    0.1
  6280.072   718.1654    0.1
  6280.089   703.6717    0.1
  6280.107   688.8366    0.1
  6280.124   663.2314    0.1
  6280.142   641.2950    0.1
  6280.159   612.8622    0.1
  6280.176   578.2365    0.1
  6280.194   550.7601    0.1
  6280.211   511.4773    0.1
  6280.229   477.0966    0.1
  6280.246   451.6236    0.1
  6280.263   414.9860    0.1
  6280.281   390.6634    0.1
  6280.298   371.8785    0.1
  6280.316   356.0829    0.1
  6280.333   350.6982    0.1
  6280.350   351.2479    0.1
  6280.368   359.7324    0.1
  6280.385   370.7342    0.1
  6280.403   392.0099    0.1
  6280.420   417.9870    0.1
  6280.437   439.6221    0.1
  6280.455   474.4064    0.1
  6280.472   506.6976    0.1
  6280.490   533.6444    0.1
  6280.507   568.7154    0.1
  6280.524   595.0723    0.1
  6280.542   620.5830    0.1
  6280.559   648.0071    0.1
  6280.577   666.2862    0.1
  6280.594   684.4787    0.1
  6280.611   692.8918    0.1
  6280.629   691.5753    0.1
  6280.646   678.0375    0.1
  6280.664   647.8434    0.1
  6280.681   620.7785    0.1
  6280.698   610.5227    0.1
  6280.716   629.9683    0.1
  6280.733   661.6311    0.1
  6280.751   707.0226    0.1
  6280.768   733.8325    0.1
  6280.785   750.4493    0.1
  6280.803   761.9608    0.1
  6280.820   766.0222    0.1
  6280.838   766.8035    0.1
  6280.855   766.5308    0.1
  6280.872   765.6609    0.1
  6280.890   763.2129    0.1
  6280.907   761.7911    0.1
  6280.925   761.0231    0.1
  6280.942   757.6514    0.1
  6280.959   754.2639    0.1
  6280.977   751.5129    0.1
  6280.994   748.3933    0.1
  6281.012   746.4753    0.1
  6281.029   745.0452    0.1
  6281.046   742.7309    0.1
  6281.064   741.7754    0.1
  6281.081   742.5569    0.1
  6281.099   743.2908    0.1
  6281.116   743.4812    0.1
  6281.133   743.0870    0.1
  6281.151   743.4134    0.1
  6281.168   744.1145    0.1
  6281.186   745.8539    0.1
  6281.203   749.4161    0.1
  6281.220   753.5377    0.1
  6281.238   756.3094    0.1
  6281.255   757.0949    0.1
  6281.273   757.2928    0.1
  6281.290   760.3965    0.1
  6281.307   762.2480    0.1
  6281.325   762.0600    0.1
  6281.342   763.1027    0.1
  6281.359   763.1319    0.1
  6281.377   758.8663    0.1
  6281.394   747.5700    0.1
  6281.412   734.0388    0.1
  6281.429   696.0718    0.1
  6281.446   656.1754    0.1
  6281.464   624.6338    0.1
  6281.481   622.8980    0.1
  6281.499   643.6364    0.1
  6281.516   674.5535    0.1
  6281.533   711.3957    0.1
  6281.551   731.5095    0.1
  6281.568   743.4468    0.1
  6281.586   749.5963    0.1
  6281.603   750.8717    0.1
  6281.620   749.5736    0.1
  6281.638   747.1588    0.1
  6281.655   744.8221    0.1
  6281.673   739.9123    0.1
  6281.690   737.0262    0.1
  6281.707   735.8934    0.1
  6281.725   732.7110    0.1
  6281.742   731.8081    0.1
  6281.760   732.5456    0.1
  6281.777   730.6845    0.1
  6281.794   731.2101    0.1
  6281.812   735.1892    0.1
  6281.829   735.5241    0.1
  6281.847   736.0584    0.1
  6281.864   740.9482    0.1
  6281.881   744.9866    0.1
  6281.899   746.6956    0.1
  6281.916   747.1817    0.1
  6281.934   749.6008    0.1
  6281.951   752.1622    0.1
  6281.968   751.3362    0.1
  6281.986   750.0612    0.1
  6282.003   749.2372    0.1
  6282.021   746.0709    0.1
  6282.038   743.3533    0.1
  6282.055   740.9513    0.1
  6282.073   735.5048    0.1
  6282.090   728.8397    0.1
  6282.108   718.3442    0.1
  6282.125   706.9846    0.1
  6282.142   696.2560    0.1
  6282.160   674.8726    0.1
  6282.177   645.5086    0.1
  6282.195   618.8455    0.1
  6282.212   569.0408    0.1
  6282.229   528.6523    0.1
  6282.247   503.0253    0.1
  6282.264   494.7809    0.1
  6282.282   496.7197    0.1
  6282.299   500.5887    0.1
  6282.316   502.7173    0.1
  6282.334   502.8577    0.1
  6282.351   502.1922    0.1
  6282.369   502.1755    0.1
  6282.386   503.5756    0.1
  6282.403   507.6999    0.1
  6282.421   517.7888    0.1
  6282.438   527.6268    0.1
  6282.456   540.8250    0.1
  6282.473   554.9407    0.1
  6282.490   567.0146    0.1
  6282.508   588.9500    0.1
  6282.525   605.8503    0.1
  6282.543   617.4033    0.1
  6282.560   640.3717    0.1
  6282.577   657.6106    0.1
  6282.595   671.1789    0.1
  6282.612   686.7919    0.1
  6282.630   699.1483    0.1
  6282.647   712.7632    0.1
  6282.664   727.8057    0.1
  6282.682   736.5520    0.1
  6282.699   741.9416    0.1
  6282.717   750.4487    0.1
  6282.734   756.7276    0.1
  6282.751   759.0707    0.1
  6282.769   761.4059    0.1
  6282.786   763.5572    0.1
  6282.804   765.2022    0.1
  6282.821   765.6727    0.1
  6282.838   765.7567    0.1
  6282.856   769.5782    0.1
  6282.873   769.4945    0.1
  6282.891   766.2080    0.1
  6282.908   765.5460    0.1
  6282.925   766.7806    0.1
  6282.943   768.8453    0.1
  6282.960   767.8764    0.1
  6282.978   767.1352    0.1
  6282.995   768.6641    0.1
  6283.012   770.2421    0.1
  6283.030   770.7223    0.1
  6283.047   769.8703    0.1
  6283.065   770.4942    0.1
  6283.082   771.4453    0.1
  6283.099   770.5365    0.1
  6283.117   770.2608    0.1
  6283.134   770.6041    0.1
  6283.152   770.4628    0.1
  6283.169   769.4591    0.1
  6283.186   768.1114    0.1
  6283.204   765.3208    0.1
  6283.221   761.1907    0.1
  6283.239   755.1688    0.1
  6283.256   738.2038    0.1
  6283.273   718.7997    0.1
  6283.291   692.1061    0.1
  6283.308   675.2299    0.1
  6283.326   674.5841    0.1
  6283.343   691.3380    0.1
  6283.360   717.0731    0.1
  6283.378   736.1194    0.1
  6283.395   750.9470    0.1
  6283.413   756.0205    0.1
  6283.430   756.8199    0.1
  6283.447   762.6878    0.1
  6283.465   764.1334    0.1
  6283.482   762.3809    0.1
  6283.500   763.6355    0.1
  6283.517   764.2108    0.1
  6283.534   763.5306    0.1
  6283.552   760.4062    0.1
  6283.569   760.1923    0.1
  6283.586   763.7155    0.1
  6283.604   766.6191    0.1
  6283.621   766.4633    0.1
  6283.639   762.9630    0.1
  6283.656   762.7656    0.1
  6283.673   763.4591    0.1
  6283.691   761.9005    0.1
  6283.708   762.4213    0.1
  6283.726   763.8927    0.1
  6283.743   765.1966    0.1
  6283.760   765.6900    0.1
  6283.778   765.8120    0.1
  6283.795   767.6418    0.1
  6283.813   767.5235    0.1
  6283.830   766.1006    0.1
  6283.847   767.9382    0.1
  6283.865   768.4198    0.1
  6283.882   766.9889    0.1
  6283.900   763.7557    0.1
  6283.917   762.5282    0.1
  6283.934   763.4719    0.1
  6283.952   761.6409    0.1
  6283.969   758.5533    0.1
  6283.987   754.0124    0.1
  6284.004   743.7783    0.1
  6284.021   733.1379    0.1
  6284.039   718.3372    0.1
  6284.056   712.7971    0.1
  6284.074   714.6301    0.1
  6284.091   725.5112    0.1
  6284.108   735.6531    0.1
  6284.126   741.7836    0.1
  6284.143   744.3377    0.1
  6284.161   745.6623    0.1
  6284.178   747.0400    0.1
  6284.195   746.0814    0.1
  6284.213   745.6968    0.1
  6284.230   746.5449    0.1
  6284.248   750.4594    0.1
  6284.265   752.1089    0.1
  6284.282   751.0389    0.1
  6284.300   752.2595    0.1
  6284.317   753.1755    0.1
  6284.335   752.6605    0.1
  6284.352   754.7371    0.1
  6284.369   756.4917    0.1
  6284.387   756.2305    0.1
  6284.404   757.1253    0.1
  6284.422   757.9618    0.1
  6284.439   756.7169    0.1
  6284.456   758.5586    0.1
  6284.474   761.1619    0.1
  6284.491   758.9143    0.1
  6284.509   759.0291    0.1
  6284.526   760.9556    0.1
  6284.543   758.1867    0.1
  6284.561   756.3195    0.1
  6284.578   755.9973    0.1
  6284.596   752.2565    0.1
  6284.613   749.3143    0.1
  6284.630   747.3131    0.1
  6284.648   737.8498    0.1
  6284.665   728.1351    0.1
  6284.683   717.3863    0.1
  6284.700   701.9659    0.1
  6284.717   688.8542    0.1
  6284.735   672.9325    0.1
  6284.752   654.9066    0.1
  6284.770   640.9129    0.1
  6284.787   622.9481    0.1
  6284.804   605.8745    0.1
  6284.822   594.2215    0.1
  6284.839   582.5105    0.1
  6284.857   575.3132    0.1
  6284.874   572.4695    0.1
  6284.891   577.3443    0.1
  6284.909   584.6681    0.1
  6284.926   591.6431    0.1
  6284.944   608.6628    0.1
  6284.961   624.2264    0.1
  6284.978   638.3353    0.1
  6284.996   661.2752    0.1
  6285.013   679.2573    0.1
  6285.031   695.1606    0.1
  6285.048   711.5696    0.1
  6285.065   723.6824    0.1
  6285.083   736.3599    0.1
  6285.100   746.1679    0.1
  6285.118   752.4607    0.1
  6285.135   760.1403    0.1
  6285.152   767.0765    0.1
  6285.170   770.6962    0.1
  6285.187   772.5214    0.1
  6285.205   774.6223    0.1
  6285.222   775.9736    0.1
  6285.239   776.0018    0.1
  6285.257   777.1284    0.1
  6285.274   777.8616    0.1
  6285.292   774.5773    0.1
  6285.309   770.5961    0.1
  6285.326   767.8926    0.1
  6285.344   767.9494    0.1
  6285.361   767.3633    0.1
  6285.379   766.1108    0.1
  6285.396   765.7865    0.1
  6285.413   763.9936    0.1
  6285.431   761.0590    0.1
  6285.448   756.7399    0.1
  6285.466   753.7291    0.1
  6285.483   751.3233    0.1
  6285.500   749.0491    0.1
  6285.518   747.6132    0.1
  6285.535   746.3176    0.1
  6285.553   743.5486    0.1
  6285.570   741.4654    0.1
  6285.587   739.9715    0.1
  6285.605   738.9507    0.1
  6285.622   736.8585    0.1
  6285.640   730.9452    0.1
  6285.657   726.5810    0.1
  6285.674   723.7008    0.1
  6285.692   718.1539    0.1
  6285.709   710.2340    0.1
  6285.727   703.1691    0.1
  6285.744   693.0381    0.1
  6285.761   683.5971    0.1
  6285.779   676.4605    0.1
  6285.796   668.4709    0.1
  6285.814   663.4671    0.1
  6285.831   660.3185    0.1
  6285.848   655.4722    0.1
  6285.866   656.2420    0.1
  6285.883   660.4552    0.1
  6285.900   667.9647    0.1
  6285.918   675.9094    0.1
  6285.935   684.7998    0.1
  6285.953   696.8718    0.1
  6285.970   707.3469    0.1
  6285.987   718.4833    0.1
  6286.005   730.5945    0.1
  6286.022   739.2300    0.1
  6286.040   747.7891    0.1
  6286.057   754.8713    0.1
  6286.074   759.3375    0.1
  6286.092   764.1144    0.1
  6286.109   766.4740    0.1
  6286.127   767.4211    0.1
  6286.144   769.1254    0.1
  6286.161   769.5234    0.1
  6286.179   769.6057    0.1
  6286.196   771.2160    0.1
  6286.214   771.3457    0.1
  6286.231   770.7754    0.1
  6286.248   770.8967    0.1
  6286.266   769.4549    0.1
  6286.283   767.6450    0.1
  6286.301   766.6498    0.1
  6286.318   765.8220    0.1
  6286.335   764.9567    0.1
  6286.353   763.1571    0.1
  6286.370   763.4285    0.1
  6286.388   764.6252    0.1
  6286.405   758.7031    0.1
  6286.422   755.9357    0.1
  6286.440   756.4074    0.1
  6286.457   757.3158    0.1
  6286.475   755.6600    0.1
  6286.492   752.1619    0.1
  6286.509   753.1068    0.1
  6286.527   753.2760    0.1
  6286.544   751.3830    0.1
  6286.562   753.0742    0.1
  6286.579   756.0124    0.1
  6286.596   759.6717    0.1
  6286.614   760.6551    0.1
  6286.631   760.9108    0.1
  6286.649   762.4242    0.1
  6286.666   763.5982    0.1
  6286.683   764.6216    0.1
  6286.701   766.8166    0.1
  6286.718   769.1585    0.1
  6286.736   770.7922    0.1
  6286.753   772.3854    0.1
  6286.770   770.0859    0.1
  6286.788   767.5056    0.1
  6286.805   767.6532    0.1
  6286.823   766.3215    0.1
  6286.840   764.5630    0.1
  6286.857   764.2218    0.1
  6286.875   761.1002    0.1
  6286.892   757.1741    0.1
  6286.910   752.7779    0.1
  6286.927   749.1573    0.1
  6286.944   746.6334    0.1
  6286.962   745.6534    0.1
  6286.979   745.4882    0.1
  6286.997   745.1873    0.1
  6287.014   738.9658    0.1
  6287.031   736.9565    0.1
  6287.049   738.5706    0.1
  6287.066   739.1792    0.1
  6287.084   739.4519    0.1
  6287.101   739.8839    0.1
  6287.118   738.5729    0.1
  6287.136   738.6169    0.1
  6287.153   740.1473    0.1
  6287.171   737.3962    0.1
  6287.188   731.5882    0.1
  6287.205   723.0547    0.1
  6287.223   702.5763    0.1
  6287.240   683.6759    0.1
  6287.258   664.4882    0.1
  6287.275   666.3332    0.1
  6287.292   679.1231    0.1
  6287.310   699.2208    0.1
  6287.327   720.4756    0.1
  6287.345   734.2237    0.1
  6287.362   746.9237    0.1
  6287.379   754.6167    0.1
  6287.397   758.6556    0.1
  6287.414   763.9846    0.1
  6287.432   764.9925    0.1
  6287.449   764.4518    0.1
  6287.466   765.8660    0.1
  6287.484   769.7593    0.1
  6287.501   772.5683    0.1
  6287.519   771.9496    0.1
  6287.536   772.9601    0.1
  6287.553   774.6423    0.1
  6287.571   775.1809    0.1
  6287.588   776.9818    0.1
  6287.606   778.8727    0.1
  6287.623   779.3749    0.1
  6287.640   779.9974    0.1
  6287.658   780.8225    0.1
  6287.675   782.0994    0.1
  6287.693   781.6726    0.1
  6287.710   780.5893    0.1
  6287.727   782.2941    0.1
  6287.745   784.1766    0.1
  6287.762   785.2814    0.1
  6287.780   782.5897    0.1
  6287.797   779.1145    0.1
  6287.814   776.0636    0.1
  6287.832   771.8027    0.1
  6287.849   769.2121    0.1
  6287.867   767.5553    0.1
  6287.884   761.1701    0.1
  6287.901   756.8113    0.1
  6287.919   754.4198    0.1
  6287.936   745.9303    0.1
  6287.954   741.6495    0.1
  6287.971   741.6451    0.1
  6287.988   740.3323    0.1
  6288.006   738.8097    0.1
  6288.023   737.4729    0.1
  6288.041   738.0035    0.1
  6288.058   739.4503    0.1
  6288.075   741.5818    0.1
  6288.093   745.8965    0.1
  6288.110   748.7308    0.1
  6288.127   750.3297    0.1
  6288.145   757.6318    0.1
  6288.162   764.1054    0.1
  6288.180   769.1092    0.1
  6288.197   775.1242    0.1
  6288.214   778.3706    0.1
  6288.232   778.8433    0.1
  6288.249   779.7134    0.1
  6288.267   782.1770    0.1
  6288.284   788.1017    0.1
  6288.301   790.7443    0.1
  6288.319   789.6866    0.1
  6288.336   785.6478    0.1
  6288.354   787.6942    0.1
  6288.371   790.2790    0.1
  6288.388   788.3223    0.1
  6288.406   785.9557    0.1
  6288.423   784.6910    0.1
  6288.441   783.7075    0.1
  6288.458   783.4798    0.1
  6288.475   783.7206    0.1
  6288.493   784.5332    0.1
  6288.510   782.0988    0.1
  6288.528   779.5848    0.1
  6288.545   781.1116    0.1
  6288.562   782.4566    0.1
  6288.580   782.4058    0.1
  6288.597   780.1109    0.1
  6288.615   779.9786    0.1
  6288.632   780.8011    0.1
  6288.649   779.6534    0.1
  6288.667   781.7324    0.1
  6288.684   785.1053    0.1
  6288.702   787.2636    0.1
  6288.719   788.4798    0.1
  6288.736   789.6180    0.1
  6288.754   793.2969    0.1
  6288.771   792.0343    0.1
  6288.789   788.2110    0.1
  6288.806   785.7688    0.1
  6288.823   783.0055    0.1
  6288.841   779.0225    0.1
  6288.858   760.0542    0.1
  6288.876   730.3575    0.1
  6288.893   701.0297    0.1
  6288.910   675.5216    0.1
  6288.928   679.5137    0.1
  6288.945   697.8971    0.1
  6288.963   735.3786    0.1
  6288.980   759.9769    0.1
  6288.997   772.9337    0.1
  6289.015   781.3532    0.1
  6289.032   785.9208    0.1
  6289.050   789.5877    0.1
  6289.067   787.0853    0.1
  6289.084   785.7067    0.1
  6289.102   786.5350    0.1
  6289.119   784.1367    0.1
  6289.137   783.9069    0.1
  6289.154   785.8977    0.1
  6289.171   785.2838    0.1
  6289.189   785.1477    0.1
  6289.206   786.2062    0.1
  6289.224   784.7648    0.1
  6289.241   785.0391    0.1
  6289.258   787.3647    0.1
  6289.276   785.7193    0.1
  6289.293   784.0642    0.1
  6289.311   783.6380    0.1
  6289.328   783.3217    0.1
  6289.345   783.7313    0.1
  6289.363   784.8679    0.1
  6289.380   785.4822    0.1
  6289.398   785.5940    0.1
  6289.415   785.5255    0.1
  6289.432   781.3045    0.1
  6289.450   779.8803    0.1
  6289.467   782.0525    0.1
  6289.485   780.6404    0.1
  6289.502   778.8134    0.1
  6289.519   778.0247    0.1
  6289.537   776.3279    0.1
  6289.554   775.5048    0.1
  6289.572   775.7754    0.1
  6289.589   774.7790    0.1
  6289.606   773.4297    0.1
  6289.624   771.9727    0.1
  6289.641   764.5463    0.1
  6289.659   755.8495    0.1
  6289.676   745.3061    0.1
  6289.693   711.7394    0.1
  6289.711   678.7317    0.1
  6289.728   646.5059    0.1
  6289.746   641.6196    0.1
  6289.763   660.7940    0.1
  6289.780   695.5830    0.1
  6289.798   733.0274    0.1
  6289.815   753.2296    0.1
  6289.833   765.3186    0.1
  6289.850   777.0602    0.1
  6289.867   782.6179    0.1
  6289.885   783.7891    0.1
  6289.902   784.7569    0.1
  6289.920   784.8966    0.1
  6289.937   783.9572    0.1
  6289.954   780.7482    0.1
  6289.972   778.4950    0.1
  6289.989   777.4970    0.1
  6290.007   773.8369    0.1
  6290.024   770.9768    0.1
  6290.041   769.5276    0.1
  6290.059   763.0010    0.1
  6290.076   757.5137    0.1
  6290.094   754.2865    0.1
  6290.111   746.9273    0.1
  6290.128   740.0457    0.1
  6290.146   733.7666    0.1
  6290.163   725.5438    0.1
  6290.181   719.2805    0.1
  6290.198   713.5883    0.1
  6290.215   706.9246    0.1
  6290.233   702.6479    0.1
  6290.250   699.7472    0.1
  6290.268   697.7571    0.1
  6290.285   697.7560    0.1
  6290.302   699.5676    0.1
  6290.320   703.1141    0.1
  6290.337   706.1468    0.1
  6290.354   709.3404    0.1
  6290.372   713.6977    0.1
  6290.389   716.0485    0.1
  6290.407   716.7004    0.1
  6290.424   716.1488    0.1
  6290.441   714.1467    0.1
  6290.459   710.0423    0.1
  6290.476   699.0967    0.1
  6290.494   687.6330    0.1
  6290.511   674.2835    0.1
  6290.528   653.0422    0.1
  6290.546   633.7571    0.1
  6290.563   613.5452    0.1
  6290.581   589.1733    0.1
  6290.598   568.8441    0.1
  6290.615   547.7406    0.1
  6290.633   527.3377    0.1
  6290.650   514.8926    0.1
  6290.668   505.7587    0.1
  6290.685   499.5835    0.1
  6290.702   499.5327    0.1
  6290.720   504.3686    0.1
  6290.737   519.9616    0.1
  6290.755   535.1538    0.1
  6290.772   550.3944    0.1
  6290.789   577.1264    0.1
  6290.807   598.6575    0.1
  6290.824   617.2151    0.1
  6290.842   645.8517    0.1
  6290.859   667.7419    0.1
  6290.876   685.6632    0.1
  6290.894   707.9369    0.1
  6290.911   723.3089    0.1
  6290.929   735.5535    0.1
  6290.946   750.7964    0.1
  6290.963   759.5007    0.1
  6290.981   764.0254    0.1
  6290.998   770.4723    0.1
  6291.016   775.1312    0.1
  6291.033   778.7094    0.1
  6291.050   785.2075    0.1
  6291.068   788.7854    0.1
  6291.085   789.7652    0.1
  6291.103   789.1915    0.1
  6291.120   788.8133    0.1
  6291.137   789.1307    0.1
  6291.155   790.8582    0.1
  6291.172   790.0966    0.1
  6291.190   787.5187    0.1
  6291.207   790.3448    0.1
  6291.224   789.1154    0.1
  6291.242   783.9142    0.1
  6291.259   782.9550    0.1
  6291.277   783.2156    0.1
  6291.294   782.9663    0.1
  6291.311   779.7038    0.1
  6291.329   775.9800    0.1
  6291.346   772.6356    0.1
  6291.364   768.9640    0.1
  6291.381   766.4350    0.1
  6291.398   764.5474    0.1
  6291.416   761.6928    0.1
  6291.433   759.9805    0.1
  6291.451   758.9281    0.1
  6291.468   756.0983    0.1
  6291.485   754.0323    0.1
  6291.503   752.6277    0.1
  6291.520   749.6810    0.1
  6291.538   747.8628    0.1
  6291.555   746.8364    0.1
  6291.572   744.6068    0.1
  6291.590   739.3306    0.1
  6291.607   731.2204    0.1
  6291.625   702.7298    0.1
  6291.642   667.6820    0.1
  6291.659   638.4448    0.1
  6291.677   613.4106    0.1
  6291.694   626.6606    0.1
  6291.712   655.7068    0.1
  6291.729   699.8053    0.1
  6291.746   732.9261    0.1
  6291.764   752.0542    0.1
  6291.781   766.7362    0.1
  6291.799   773.3838    0.1
  6291.816   776.7106    0.1
  6291.833   783.6178    0.1
  6291.851   787.3765    0.1
  6291.868   788.6673    0.1
  6291.886   790.2658    0.1
  6291.903   791.6848    0.1
  6291.920   792.6221    0.1
  6291.938   793.4821    0.1
  6291.955   793.4976    0.1
  6291.973   793.4745    0.1
  6291.990   794.5869    0.1
  6292.007   794.8656    0.1
  6292.025   794.9095    0.1
  6292.042   795.8300    0.1
  6292.060   795.3116    0.1
  6292.077   794.6053    0.1
  6292.094   794.7003    0.1
  6292.112   789.0037    0.1
  6292.129   785.7946    0.1
  6292.147   789.3733    0.1
  6292.164   788.8874    0.1
  6292.181   786.6918    0.1
  6292.199   785.2146    0.1
  6292.216   781.7907    0.1
  6292.234   779.4051    0.1
  6292.251   778.2981    0.1
  6292.268   770.3009    0.1
  6292.286   762.2238    0.1
  6292.303   754.6365    0.1
  6292.321   738.6789    0.1
  6292.338   724.6389    0.1
  6292.355   711.6358    0.1
  6292.373   690.0978    0.1
  6292.390   666.7039    0.1
  6292.408   638.8668    0.1
  6292.425   589.7345    0.1
  6292.442   541.3451    0.1
  6292.460   492.2374    0.1
  6292.477   460.2857    0.1
  6292.495   462.3602    0.1
  6292.512   480.3959    0.1
  6292.529   514.0080    0.1
  6292.547   536.7445    0.1
  6292.564   551.2479    0.1
  6292.582   571.8935    0.1
  6292.599   588.7564    0.1
  6292.616   602.4689    0.1
  6292.634   625.3859    0.1
  6292.651   645.7944    0.1
  6292.668   661.8389    0.1
  6292.686   682.4023    0.1
  6292.703   701.4875    0.1
  6292.721   716.2709    0.1
  6292.738   729.1862    0.1
  6292.755   740.2833    0.1
  6292.773   748.6684    0.1
  6292.790   755.3648    0.1
  6292.808   759.7043    0.1
  6292.825   761.8979    0.1
  6292.842   761.6337    0.1
  6292.860   762.3573    0.1
  6292.877   762.4339    0.1
  6292.895   758.3432    0.1
  6292.912   756.9659    0.1
  6292.929   756.3005    0.1
  6292.947   752.2756    0.1
  6292.964   746.4379    0.1
  6292.982   743.4954    0.1
  6292.999   744.5706    0.1
  6293.016   740.3611    0.1
  6293.034   737.1261    0.1
  6293.051   738.3699    0.1
  6293.069   738.3236    0.1
  6293.086   737.9705    0.1
  6293.103   738.7348    0.1
  6293.121   741.7326    0.1
  6293.138   744.0337    0.1
  6293.156   745.6741    0.1
  6293.173   750.7211    0.1
  6293.190   755.1658    0.1
  6293.208   758.7824    0.1
  6293.225   761.0474    0.1
  6293.243   761.5782    0.1
  6293.260   761.6373    0.1
  6293.277   762.8814    0.1
  6293.295   763.5440    0.1
  6293.312   763.5174    0.1
  6293.330   760.7733    0.1
  6293.347   759.7070    0.1
  6293.364   759.6347    0.1
  6293.382   753.0225    0.1
  6293.399   747.0343    0.1
  6293.417   743.0582    0.1
  6293.434   738.8319    0.1
  6293.451   733.5746    0.1
  6293.469   728.1577    0.1
  6293.486   720.7964    0.1
  6293.504   713.9638    0.1
  6293.521   708.5104    0.1
  6293.538   701.0623    0.1
  6293.556   695.3009    0.1
  6293.573   691.5665    0.1
  6293.591   687.1127    0.1
  6293.608   685.3300    0.1
  6293.625   685.6448    0.1
  6293.643   687.1135    0.1
  6293.660   689.5263    0.1
  6293.678   692.2924    0.1
  6293.695   696.7829    0.1
  6293.712   706.1294    0.1
  6293.730   714.5198    0.1
  6293.747   722.7571    0.1
  6293.765   730.5551    0.1
  6293.782   736.6097    0.1
  6293.799   743.2622    0.1
  6293.817   752.2054    0.1
  6293.834   758.5822    0.1
  6293.852   763.5226    0.1
  6293.869   767.2143    0.1
  6293.886   769.6474    0.1
  6293.904   772.0495    0.1
  6293.921   779.1848    0.1
  6293.939   781.6745    0.1
  6293.956   780.7644    0.1
  6293.973   783.2710    0.1
  6293.991   784.1745    0.1
  6294.008   783.4740    0.1
  6294.026   783.2523    0.1
  6294.043   783.9693    0.1
  6294.060   784.8172    0.1
  6294.078   785.2688    0.1
  6294.095   784.8049    0.1
  6294.113   783.3388    0.1
  6294.130   779.0103    0.1
  6294.147   777.6338    0.1
  6294.165   778.1961    0.1
  6294.182   778.7076    0.1
  6294.200   777.7452    0.1
  6294.217   776.9355    0.1
  6294.234   777.2166    0.1
  6294.252   774.0721    0.1
  6294.269   773.1400    0.1
  6294.287   776.5999    0.1
  6294.304   775.9738    0.1
  6294.321   775.6902    0.1
  6294.339   778.0620    0.1
  6294.356   780.1688    0.1
  6294.374   781.1149    0.1
  6294.391   781.7683    0.1
  6294.408   783.8438    0.1
  6294.426   784.8108    0.1
  6294.443   784.8072    0.1
  6294.461   784.2707    0.1
  6294.478   783.4024    0.1
  6294.495   782.7098    0.1
  6294.513   784.2486    0.1
  6294.530   783.8906    0.1
  6294.548   782.4428    0.1
  6294.565   781.9084    0.1
  6294.582   779.6815    0.1
  6294.600   775.3172    0.1
  6294.617   764.3235    0.1
  6294.635   739.0445    0.1
  6294.652   707.6959    0.1
  6294.669   659.7674    0.1
  6294.687   624.5733    0.1
  6294.704   619.3893    0.1
  6294.722   642.8118    0.1
  6294.739   685.6854    0.1
  6294.756   718.2402    0.1
  6294.774   742.0150    0.1
  6294.791   755.6142    0.1
  6294.809   759.9808    0.1
  6294.826   761.8367    0.1
  6294.843   762.0962    0.1
  6294.861   760.6526    0.1
  6294.878   758.4857    0.1
  6294.895   754.6786    0.1
  6294.913   754.7535    0.1
  6294.930   757.0196    0.1
  6294.948   756.8654    0.1
  6294.965   757.7402    0.1
  6294.982   759.2811    0.1
  6295.000   758.9399    0.1
  6295.017   763.1516    0.1
  6295.035   768.5090    0.1
  6295.052   771.4078    0.1
  6295.069   774.7043    0.1
  6295.087   777.2305    0.1
  6295.104   778.0449    0.1
  6295.122   780.8460    0.1
  6295.139   783.0066    0.1
  6295.156   783.1837    0.1
  6295.174   785.1583    0.1
  6295.191   787.6785    0.1
  6295.209   790.3430    0.1
  6295.226   790.0783    0.1
  6295.243   790.4898    0.1
  6295.261   792.7357    0.1
  6295.278   791.4203    0.1
  6295.296   789.6017    0.1
  6295.313   788.6305    0.1
  6295.330   787.7192    0.1
  6295.348   786.6939    0.1
  6295.365   784.7464    0.1
  6295.383   774.3744    0.1
  6295.400   759.5076    0.1
  6295.417   740.8335    0.1
  6295.435   695.5668    0.1
  6295.452   639.4585    0.1
  6295.470   602.3821    0.1
  6295.487   596.6939    0.1
  6295.504   633.0532    0.1
  6295.522   673.1772    0.1
  6295.539   711.9316    0.1
  6295.557   739.3005    0.1
  6295.574   751.0505    0.1
  6295.591   756.9400    0.1
  6295.609   755.8126    0.1
  6295.626   752.7915    0.1
  6295.644   750.3411    0.1
  6295.661   745.3423    0.1
  6295.678   740.0923    0.1
  6295.696   735.0871    0.1
  6295.713   729.1315    0.1
  6295.731   724.3528    0.1
  6295.748   720.6192    0.1
  6295.765   718.7833    0.1
  6295.783   717.8368    0.1
  6295.800   717.0721    0.1
  6295.818   716.8201    0.1
  6295.835   717.8443    0.1
  6295.852   719.7492    0.1
  6295.870   723.5336    0.1
  6295.887   727.0512    0.1
  6295.905   729.1957    0.1
  6295.922   731.1109    0.1
  6295.939   729.4861    0.1
  6295.957   727.5823    0.1
  6295.974   726.7551    0.1
  6295.992   720.6887    0.1
  6296.009   713.2271    0.1
  6296.026   705.7899    0.1
  6296.044   688.9457    0.1
  6296.061   674.5204    0.1
  6296.079   663.3079    0.1
  6296.096   644.6000    0.1
  6296.113   628.1826    0.1
  6296.131   615.3325    0.1
  6296.148   600.2518    0.1
  6296.166   586.6516    0.1
  6296.183   577.4720    0.1
  6296.200   572.7656    0.1
  6296.218   570.9555    0.1
  6296.235   571.7494    0.1
  6296.253   576.3230    0.1
  6296.270   585.6124    0.1
  6296.287   594.8248    0.1
  6296.305   605.1023    0.1
  6296.322   624.6135    0.1
  6296.340   640.1019    0.1
  6296.357   651.5308    0.1
  6296.374   667.8696    0.1
  6296.392   682.3700    0.1
  6296.409   694.7652    0.1
  6296.427   711.1894    0.1
  6296.444   722.5577    0.1
  6296.461   730.3997    0.1
  6296.479   742.4245    0.1
  6296.496   751.8181    0.1
  6296.514   757.7496    0.1
  6296.531   763.5702    0.1
  6296.548   766.0561    0.1
  6296.566   767.2354    0.1
  6296.583   769.8686    0.1
  6296.601   771.1166    0.1
  6296.618   770.9446    0.1
  6296.635   770.3193    0.1
  6296.653   765.4421    0.1
  6296.670   763.9346    0.1
  6296.688   766.0687    0.1
  6296.705   761.4395    0.1
  6296.722   759.4830    0.1
  6296.740   760.7196    0.1
  6296.757   757.8773    0.1
  6296.775   757.5232    0.1
  6296.792   759.2973    0.1
  6296.809   761.0830    0.1
  6296.827   763.1416    0.1
  6296.844   765.1805    0.1
  6296.862   768.1112    0.1
  6296.879   770.8641    0.1
  6296.896   772.0689    0.1
  6296.914   772.0804    0.1
  6296.931   774.9453    0.1
  6296.949   777.2730    0.1
  6296.966   778.1051    0.1
  6296.983   781.3677    0.1
  6297.001   782.4310    0.1
  6297.018   781.4483    0.1
  6297.036   781.9476    0.1
  6297.053   781.6054    0.1
  6297.070   780.0859    0.1
  6297.088   776.0537    0.1
  6297.105   773.9843    0.1
  6297.122   773.3533    0.1
  6297.140   771.7844    0.1
  6297.157   768.3140    0.1
  6297.175   763.8579    0.1
  6297.192   757.3527    0.1
  6297.209   748.3701    0.1
  6297.227   739.8377    0.1
  6297.244   730.7013    0.1
  6297.262   712.2559    0.1
  6297.279   695.0269    0.1
  6297.296   680.7658    0.1
  6297.314   652.1845    0.1
  6297.331   624.5421    0.1
  6297.349   601.3645    0.1
  6297.366   565.8274    0.1
  6297.383   531.3975    0.1
  6297.401   503.9865    0.1
  6297.418   472.0417    0.1
  6297.436   442.0856    0.1
  6297.453   420.9863    0.1
  6297.470   401.0297    0.1
  6297.488   388.5987    0.1
  6297.505   385.1653    0.1
  6297.523   386.4653    0.1
  6297.540   396.5810    0.1
  6297.557   411.3971    0.1
  6297.575   428.1316    0.1
  6297.592   459.4353    0.1
  6297.610   487.7318    0.1
  6297.627   511.1133    0.1
  6297.644   544.0793    0.1
  6297.662   574.3493    0.1
  6297.679   597.4869    0.1
  6297.697   623.2409    0.1
  6297.714   647.1959    0.1
  6297.731   664.9108    0.1
  6297.749   683.4743    0.1
  6297.766   699.0551    0.1
  6297.784   708.2004    0.1
  6297.801   715.4866    0.1
  6297.818   724.4587    0.1
  6297.836   730.6798    0.1
  6297.853   735.0614    0.1
  6297.871   737.2581    0.1
  6297.888   731.1182    0.1
  6297.905   719.6599    0.1
  6297.923   694.3783    0.1
  6297.940   651.7591    0.1
  6297.958   617.2317    0.1
  6297.975   598.6541    0.1
  6297.992   620.5937    0.1
  6298.010   653.8392    0.1
  6298.027   690.0695    0.1
  6298.045   723.0235    0.1
  6298.062   739.5443    0.1
  6298.079   748.1540    0.1
  6298.097   752.9953    0.1
  6298.114   755.0338    0.1
  6298.132   756.5892    0.1
  6298.149   759.9312    0.1
  6298.166   762.2735    0.1
  6298.184   763.1486    0.1
  6298.201   762.1882    0.1
  6298.219   765.3071    0.1
  6298.236   768.9210    0.1
  6298.253   770.6811    0.1
  6298.271   773.7464    0.1
  6298.288   776.3308    0.1
  6298.306   778.3147    0.1
  6298.323   778.7095    0.1
  6298.340   778.4493    0.1
  6298.358   778.2640    0.1
  6298.375   777.8691    0.1
  6298.393   778.2079    0.1
  6298.410   778.8452    0.1
  6298.427   779.3805    0.1
  6298.445   778.5215    0.1
  6298.462   778.0537    0.1
  6298.480   779.9076    0.1
  6298.497   778.4013    0.1
  6298.514   776.8541    0.1
  6298.532   777.5658    0.1
  6298.549   780.5150    0.1
  6298.567   780.0014    0.1
  6298.584   776.4702    0.1
  6298.601   773.9179    0.1
  6298.619   772.8602    0.1
  6298.636   771.3221    0.1
  6298.654   762.0321    0.1
  6298.671   746.5995    0.1
  6298.688   725.3092    0.1
  6298.706   679.4611    0.1
  6298.723   624.2920    0.1
  6298.741   595.8959    0.1
  6298.758   595.6654    0.1
  6298.775   635.1934    0.1
  6298.793   672.1409    0.1
  6298.810   700.0687    0.1
  6298.828   726.3228    0.1
  6298.845   736.3146    0.1
  6298.862   737.7068    0.1
  6298.880   737.3504    0.1
  6298.897   735.8808    0.1
  6298.915   734.2268    0.1
  6298.932   732.0464    0.1
  6298.949   734.7185    0.1
  6298.967   737.0861    0.1
  6298.984   736.2545    0.1
  6299.002   735.7672    0.1
  6299.019   734.0098    0.1
  6299.036   730.6514    0.1
  6299.054   733.3631    0.1
  6299.071   732.8803    0.1
  6299.089   728.9588    0.1
  6299.106   723.9110    0.1
  6299.123   716.7713    0.1
  6299.141   709.4378    0.1
  6299.158   701.0410    0.1
  6299.176   690.2852    0.1
  6299.193   680.8194    0.1
  6299.210   671.6691    0.1
  6299.228   658.5712    0.1
  6299.245   648.9944    0.1
  6299.263   642.2740    0.1
  6299.280   632.3892    0.1
  6299.297   627.5912    0.1
  6299.315   626.5413    0.1
  6299.332   628.3430    0.1
  6299.350   632.4685    0.1
  6299.367   638.0412    0.1
  6299.384   649.1784    0.1
  6299.402   662.1052    0.1
  6299.419   673.6428    0.1
  6299.436   686.9468    0.1
  6299.454   700.9434    0.1
  6299.471   713.0224    0.1
  6299.489   724.6172    0.1
  6299.506   738.6546    0.1
  6299.523   748.9388    0.1
  6299.541   756.7962    0.1
  6299.558   768.2581    0.1
  6299.576   772.9644    0.1
  6299.593   775.2147    0.1
  6299.610   782.0656    0.1
  6299.628   784.9046    0.1
  6299.645   786.2392    0.1
  6299.663   789.4260    0.1
  6299.680   789.5523    0.1
  6299.697   788.6528    0.1
  6299.715   788.1575    0.1
  6299.732   788.2321    0.1
  6299.750   785.0464    0.1
  6299.767   780.6827    0.1
  6299.784   777.0051    0.1
  6299.802   773.1452    0.1
  6299.819   767.8447    0.1
  6299.837   758.3139    0.1
  6299.854   750.4726    0.1
  6299.871   743.7299    0.1
  6299.889   735.1520    0.1
  6299.906   722.3817    0.1
  6299.924   711.9427    0.1
  6299.941   703.5948    0.1
  6299.958   694.8494    0.1
  6299.976   689.0369    0.1
